,Time,Fp1,Fp2,AF7,AF3,AF4,AF8,F7,F5,F3,F1,Fz,F2,F4,F6,F8,FT7,FC5,FC3,FC1,FCz,FC2,FC4,FC6,FT8,T7,C5,C3,C1,Cz,C2,C4,C6,T8,TP7,CP5,CP3,CP1,CPz,CP2,CP4,CP6,TP8,P7,P5,P3,P1,Pz,P2,P4,P6,P8,PO7,POz,P08,O1,O2,EOG
0,47.995,830.677222,979.638619,847.257758,766.929505,555.929311,853.074414,777.92697,910.4160820000001,798.45196,491.603217,487.69184400000006,503.767091,615.011479,723.6639190000001,817.772293,815.388048,733.921696,743.744226,594.896394,532.860179,561.555191,530.361924,1035.550217,1002.456818,711.753206,800.3485019999999,643.596176,605.7294509999999,570.1156110000001,540.7762769999999,504.06449699999996,410.460162,913.2868470000001,674.436957,789.0869690000001,573.238155,674.983196,497.01364299999995,594.5127190000001,584.173187,866.811458,703.125858,604.050959,756.124658,736.3583309999999,690.772577,357.072852,527.221414,568.057948,817.546838,741.13312,742.770663,313.3937,932.304475,750.347476,969.756009,-1591.606547
1,55.86,741.3973269999999,872.008242,766.300141,677.442596,457.186287,782.537999,700.256845,824.5700320000001,711.395305,418.706294,405.380556,417.427792,544.665508,660.522407,717.521373,715.022991,664.7951009999999,655.4649969999999,510.62893399999996,454.108818,479.501451,447.695241,939.8561480000001,878.9024300000001,621.4422089999999,743.264679,570.747832,506.64989800000006,488.03508899999997,474.86396900000005,413.939559,402.988505,806.540835,594.336379,722.6981040000001,500.924759,595.999766,419.46095499999996,501.553732,504.64187400000003,762.436112,617.204151,527.649101,659.986684,664.4374809999999,606.561811,306.138894,447.781496,493.39207400000004,757.499946,663.73107,643.358617,280.65500499999996,835.169209,682.3618339999999,985.912887,-1632.253751
2,63.775,655.710247,800.222757,690.103381,608.341656,428.382266,705.809794,657.269119,744.304954,623.5690549999999,366.48739,354.879749,364.497648,485.474349,612.451192,660.03692,685.004174,604.159283,571.635643,449.85665300000005,400.292235,423.74452199999996,397.688504,880.3690859999999,793.123048,594.083784,677.197918,510.37614699999995,440.302866,418.055053,425.165212,364.331591,369.95673999999997,709.001124,560.203541,626.474109,439.20665499999996,536.213869,365.986288,449.251279,446.89032199999997,705.014092,567.223168,485.719757,604.3290400000001,617.421504,569.497751,264.772229,384.128875,437.289179,695.4058809999999,609.067129,588.2007309999999,240.277625,735.432159,637.662106,939.6230869999999,-1588.697668
3,71.66,505.521992,656.193543,535.766742,460.644899,295.091007,548.81011,491.984303,573.692467,457.116312,202.50040900000002,202.992658,219.26809,372.065526,476.25264000000004,519.108703,537.770108,441.606838,420.493916,279.156642,241.32759700000003,275.834256,256.823107,739.019667,668.4699360000001,455.18911900000006,517.647201,362.074018,298.36123599999996,269.63948999999997,275.597648,227.161058,170.772673,568.295793,405.482187,470.9881,317.540168,390.968467,230.523448,318.745564,317.504318,573.4966450000001,442.324642,350.432545,453.154646,454.940241,438.223245,135.375851,261.897538,307.653602,551.175548,481.569049,443.286527,93.17604399999999,597.832214,487.04410099999996,765.70326,-1471.17103
4,79.525,392.508071,504.661776,395.453906,339.234001,157.797753,389.749396,359.081097,444.971754,326.184913,74.652324,82.30574399999999,93.041761,203.476798,290.932513,388.035395,400.784314,297.689577,288.902251,118.46642299999999,99.900915,147.43033400000002,133.731572,566.740525,512.850827,324.59469900000005,356.031269,226.80949500000003,170.471347,139.957335,141.145579,110.00044799999999,33.122359,433.347576,253.81434700000003,287.586314,173.187262,258.33507099999997,102.345917,215.730609,208.182323,420.179567,315.301307,220.69623199999998,307.114017,286.434691,287.233686,19.558913,151.220874,177.583071,372.191496,339.157296,304.68408900000003,-32.193317,449.92040499999996,315.785541,620.761488,-1695.4294719999998
5,91.945,279.30025,386.45882,272.636807,227.05050400000002,88.33200500000001,316.08478199999996,275.89477200000005,334.889786,257.08002799999997,9.261084,18.815466,22.631316,108.53491000000001,220.486679,300.10433900000004,323.77410299999997,225.97543599999997,196.31714,55.840805,64.968339,70.15508,63.545131999999995,480.261738,417.606083,248.720217,300.06993700000004,156.22862800000001,100.48078100000001,76.603177,82.321463,22.687246,73.60251099999999,342.525625,197.55443400000001,179.058,85.70042099999999,174.699456,44.243183,102.188869,93.62049300000001,325.930444,228.28375099999997,145.243867,232.888634,211.896025,193.763452,-41.097705,98.386252,95.28378599999999,342.494347,278.072964,227.92295,-59.427562,309.652283,263.941596,472.002025,-882.9645619999999
6,99.83,173.11903700000002,275.487436,168.220275,133.354826,-3.935489,211.151521,173.075003,236.515696,159.796689,-79.082635,-65.723988,-73.334756,58.112044,119.449956,174.155832,211.90159,126.572258,84.479681,-60.771483999999994,-27.573471,-29.415158,-25.719522,341.469134,283.548833,135.565449,202.47271,56.368736,-13.748755,-21.338670999999998,-30.637344,-68.890372,-87.08769000000001,217.70025800000002,101.157966,90.983202,-3.266353,73.05025,-42.774226,1.8882560000000002,-24.305973,221.208179,114.08626100000001,46.326425,171.581487,160.20163,91.673309,-146.864608,-2.8474009999999996,1.7188419999999998,231.785307,179.81284,166.036672,-177.95543500000002,200.031687,164.201359,262.719445,-779.605068
7,107.71,81.25885600000001,186.608261,90.835285,50.701159999999994,-90.263715,115.074201,106.12751399999999,151.64030400000001,61.555243000000004,-155.840101,-139.05326200000002,-141.38407800000002,-6.616592,16.0772,104.459016,145.408651,57.913927,0.578754,-114.138355,-105.396181,-96.593177,-103.83974599999999,256.14923999999996,204.930479,50.621078999999995,117.913799,-26.847733,-84.501974,-89.998476,-97.711219,-143.085587,-54.332206000000006,143.764442,2.191763,0.050166,-124.28222099999999,-1.394917,-116.912737,-70.47960400000001,-102.909685,136.225171,32.019679,-35.770025,66.62916700000001,72.301139,-0.186338,-197.877307,-88.453337,-77.22631899999999,131.510198,87.639915,60.515073,-211.423577,136.675139,80.69499,233.24661899999998,-650.4851480000001
8,115.595,76.591264,172.131912,71.468919,48.363957,-160.143684,94.280169,88.02895600000001,152.04573100000002,52.732909,-148.299602,-128.04628799999998,-130.95863,7.016203,-11.9517,91.75204000000001,123.100181,47.988873,0.02816,-112.7336,-96.431501,-89.349387,-101.30808,231.256368,191.257487,59.626778,101.600289,-31.010475,-96.178896,-76.35888800000001,-100.219093,-137.176738,-150.671593,121.763158,-10.385321000000001,-24.633052,-127.605899,-2.015749,-104.131446,-75.07522900000001,-110.089134,125.57988,35.518459,-31.106635999999998,45.064523,41.938848,-23.075644,-204.86993999999999,-87.649215,-67.526519,134.463873,109.224401,43.092283,-240.339442,138.519395,73.780588,124.533266,-446.426849
9,123.495,32.246924,123.315569,34.293847,2.574848,-179.837638,73.91781800000001,63.458661,101.183775,15.963455999999999,-182.002093,-163.40828,-165.307821,-53.622276,-18.968655,60.618083999999996,84.948541,20.827898,-33.716528000000004,-148.061208,-127.54509399999999,-121.036188,-126.27103899999999,214.908431,140.309488,27.556457,59.781618,-75.266091,-155.295406,-115.525999,-122.19976799999999,-171.55891699999998,-88.545787,92.536578,-42.572159,-40.073339000000004,-176.356889,-50.260949,-141.023102,-110.689292,-165.74645800000002,76.765512,-13.327014000000002,-70.71911999999999,29.219482,14.740196,-73.377038,-225.257797,-132.165177,-110.77396399999999,107.545349,73.886629,26.394441999999998,-241.228906,76.9306,36.133601,121.69721200000001,-374.486961
10,138.96,-51.205827,50.330847,-38.585871999999995,-79.708505,-219.765722,-6.776358999999999,-28.353735999999998,10.479213,-51.430347,-248.615917,-228.53613700000002,-244.46249,-144.85824499999998,-87.19973900000001,-37.389066,-21.063041000000002,-66.998847,-108.703869,-194.33916499999998,-189.491829,-202.22161599999998,-211.682458,111.183982,25.782669,-82.900864,-37.260046,-157.733622,-234.909811,-176.427704,-189.20967,-252.555347,-168.497287,-18.541107,-133.161993,-119.640876,-237.19063300000002,-128.021166,-211.65944700000003,-175.624921,-242.47705,-12.9947,-111.807507,-163.094031,-95.114176,-97.113548,-148.40340600000002,-290.315386,-213.14931800000002,-198.16832,6.924871,-23.413573,-98.224867,-302.040035,-6.431798000000001,-46.404175,-83.871487,-96.85133499999999
11,149.63,-92.118429,-0.330301,-124.61366399999999,-125.176699,-277.93913599999996,-81.097059,-93.04194,-40.883237,-112.421448,-293.326031,-265.681017,-290.952217,-207.70355,-126.857301,-121.062673,-74.614925,-118.434554,-159.140999,-239.495196,-248.573833,-252.23963700000002,-262.654267,16.179021,-43.654058,-116.276004,-111.79961399999999,-206.792382,-274.713732,-223.890183,-247.654387,-294.227702,-345.842856,-72.146558,-195.08486100000002,-210.494969,-246.13220800000002,-179.579953,-256.954087,-224.572123,-268.611396,-66.819799,-143.667747,-198.578428,-148.160906,-181.371963,-203.970213,-352.97592099999997,-252.648926,-240.392873,-69.343209,-57.786184,-141.871307,-394.645175,-80.139156,-111.335903,-271.059048,107.97831699999999
12,160.315,-131.547205,-30.447253999999997,-150.43659499999998,-162.395218,-290.42028700000003,-115.684273,-151.890095,-60.132388,-140.765161,-317.44750899999997,-288.213997,-302.402702,-221.836334,-107.33015800000001,-103.588285,-117.77972199999999,-146.936895,-173.866817,-250.77386800000002,-267.624652,-265.610488,-273.833413,6.247228,-55.846385999999995,-145.748925,-141.351149,-220.901063,-311.547612,-243.488233,-263.74134100000003,-306.589116,-319.21671200000003,-96.63558499999999,-228.741668,-174.876887,-282.24830499999996,-223.94806499999999,-274.660348,-247.61834700000003,-278.908571,-100.764967,-176.41141299999998,-228.653167,-166.617823,-193.92822900000002,-257.040841,-357.95272,-266.21087400000005,-263.461874,-88.765112,-77.34549200000001,-159.791407,-392.072883,-100.524874,-139.279994,-278.248368,226.45028100000002
13,170.995,-173.515407,-69.64099499999999,-195.732641,-196.43309,-316.787974,-128.026652,-180.646096,-102.05229200000001,-196.17265700000002,-348.98773,-314.264816,-315.172462,-226.58344900000003,-162.084549,-146.478574,-161.252117,-190.855748,-173.758176,-280.86409,-294.07845499999996,-283.217536,-288.045659,-23.565929,-97.20517099999999,-174.28108500000002,-177.466604,-241.642977,-322.036744,-269.350434,-283.07701000000003,-321.24321499999996,-378.005766,-159.587453,-251.346627,-212.56106200000002,-265.36981000000003,-238.560306,-281.786236,-248.241777,-306.986631,-121.504393,-189.67287199999998,-240.83818300000001,-166.545512,-172.10703700000002,-266.665406,-374.615117,-271.233242,-272.38005699999997,-119.14243799999998,-89.58619,-162.92241,-415.426898,-95.72600200000001,-178.27586200000002,-308.523975,378.616797
14,181.665,-97.514175,-15.913967000000001,-109.274051,-120.086396,-228.91708599999998,-48.418321999999996,-125.009368,-44.368154,-91.576539,-238.88924900000004,-211.99732200000003,-229.30316499999998,-103.76432,-91.96509,-74.708628,-101.505238,-143.842488,-102.401965,-173.112832,-192.935508,-201.939993,-206.949254,65.724867,-39.946008,-140.03888500000002,-77.663151,-161.057435,-232.51507999999998,-194.885623,-189.181703,-249.828064,-114.32351499999999,-88.047527,-179.208994,-118.346193,-205.304536,-172.219248,-203.282876,-172.717812,-250.931502,-74.58925,-143.532112,-191.46563600000002,-107.934905,-103.583863,-190.714479,-274.60177999999996,-210.77140699999998,-221.347308,-54.393864,-58.54838,-106.45763500000001,-273.265163,-50.928915,-101.10835,-139.841916,670.232621
15,197.115,-197.92371699999998,-142.68801399999998,-209.34906999999998,-214.44050099999998,-317.12904,-156.709031,-222.958575,-148.127182,-175.700043,-315.769968,-302.335515,-308.487418,-226.53045099999997,-202.41138,-182.635896,-211.242686,-243.329996,-185.79773899999998,-276.162895,-280.507848,-276.846517,-302.142581,-110.699789,-158.845078,-214.96246800000003,-218.386071,-245.98871499999998,-307.28492400000005,-274.443918,-265.06450099999995,-332.396858,-198.37118700000002,-204.467093,-260.64727400000004,-260.020616,-271.096885,-261.474725,-282.751656,-274.064093,-303.903974,-153.444724,-233.93242,-266.499254,-210.691908,-229.51915699999998,-264.86759700000005,-340.959738,-276.918496,-288.844379,-144.523779,-144.618855,-208.570667,-342.220215,-117.15625800000001,-181.966616,-188.602272,782.922219
16,207.78,-132.21505,-88.06685999999999,-131.877483,-155.526555,-247.02427200000002,-108.684518,-196.28767,-83.156205,-105.18722,-240.059289,-233.786797,-240.339897,-186.847524,-150.40116,-126.657504,-183.292445,-184.623636,-128.997237,-210.326196,-214.34298399999997,-212.45907799999998,-222.72384,-30.738048,-133.079997,-170.849602,-156.92525700000002,-181.00291,-245.99733799999998,-214.22108599999999,-203.168796,-259.43672000000004,-242.64166200000003,-158.741599,-186.69341200000002,-236.412012,-202.211062,-182.311638,-214.47521600000002,-244.775316,-251.027219,-103.51016899999999,-176.917093,-203.04762,-155.205422,-153.342088,-216.62058199999998,-289.23632000000003,-207.287827,-219.422292,-104.15768,-90.4208,-154.60667800000002,-311.87679199999997,-67.922159,-128.20748,-173.40761,880.9460429999999
17,218.445,-272.287035,-223.720923,-288.790486,-284.215791,-379.659602,-264.48853199999996,-320.027363,-242.205191,-222.78130499999997,-342.937869,-340.980184,-346.49577400000004,-271.32216,-295.51586499999996,-252.202373,-308.19669,-301.0278,-219.270392,-334.771667,-329.573345,-316.086874,-324.30620899999997,-211.36818399999999,-266.574023,-294.450121,-292.205468,-284.09860299999997,-341.236038,-321.480175,-304.248031,-354.119717,-430.67301299999997,-261.13088,-320.771243,-344.084134,-286.44098399999996,-292.026307,-322.700261,-318.49824900000004,-330.372746,-223.043869,-289.091389,-316.11472200000003,-261.10346400000003,-268.609579,-323.934677,-403.368378,-307.867613,-327.601528,-249.685866,-214.34751,-257.968123,-441.944458,-197.34889099999998,-267.225711,-332.751435,1022.648603
18,229.115,-242.68420299999997,-174.00134,-260.504133,-263.256749,-329.61335299999996,-210.09483799999998,-296.276764,-223.071723,-233.546274,-324.21775,-308.516723,-313.95122200000003,-229.895306,-219.983989,-205.344526,-252.494754,-292.339266,-242.12494500000003,-342.626144,-291.792302,-287.787352,-292.17418599999996,-166.37536599999999,-246.85292400000003,-262.267673,-247.26636000000002,-272.330131,-334.373354,-294.713311,-283.910031,-319.25239500000004,-207.350847,-237.79411000000002,-290.03497999999996,-271.717772,-285.105162,-281.792365,-292.10636600000004,-280.15686400000004,-291.72415099999995,-210.696796,-257.016387,-290.944051,-234.275252,-244.851166,-296.56194500000004,-336.614987,-268.521833,-299.185078,-233.05721400000002,-188.541231,-232.04442799999998,-334.428075,-223.670561,-228.084058,-181.365201,1184.4466009999999
19,239.78,-318.044021,-268.90646,-327.854648,-342.33025699999996,-446.98495099999997,-331.86995,-403.130452,-337.430712,-302.176181,-394.87179199999997,-387.188817,-392.518313,-350.22222400000004,-359.37849500000004,-366.129179,-358.334556,-406.632847,-303.028273,-415.69428999999997,-375.40389300000004,-367.042732,-383.307974,-335.406491,-330.72743199999996,-336.140235,-358.367094,-345.63646,-392.863719,-357.914304,-366.391423,-384.91828399999997,-239.41280299999997,-335.783486,-368.880423,-313.515797,-359.63122999999996,-364.135186,-357.513361,-337.89818199999996,-353.34592799999996,-307.93856,-337.87542,-353.131411,-312.15027200000003,-333.476554,-365.920333,-388.049215,-326.516498,-375.634885,-339.828188,-273.318525,-306.444044,-383.370614,-314.130643,-334.747338,-300.057782,1256.279441
20,255.215,-363.020063,-321.262254,-339.54373799999996,-375.746598,-427.429745,-323.16513199999997,-402.831522,-336.426225,-321.409302,-416.467087,-410.790547,-429.743364,-390.920337,-330.956463,-338.84743599999996,-416.24352700000003,-393.491254,-357.754054,-451.912921,-402.30216,-403.183667,-400.55951899999997,-337.905094,-372.622752,-382.912599,-377.44007799999997,-398.13916800000004,-424.017153,-397.34524300000004,-386.69577200000003,-417.904483,-428.468859,-346.899888,-386.34148799999997,-414.912128,-446.93429000000003,-417.19913199999996,-408.557333,-383.469777,-413.75120699999997,-344.485884,-365.65275299999996,-387.894693,-376.354986,-387.311001,-442.260997,-461.592206,-381.09119,-399.042925,-330.72588199999996,-296.22107900000003,-373.832061,-475.830307,-287.61507400000005,-364.445766,-450.409328,1400.421439
21,265.88,-289.761681,-267.865967,-281.968772,-296.725675,-329.73452599999996,-258.058715,-329.422852,-264.109244,-233.91397400000002,-317.48763199999996,-318.92096499999997,-336.271351,-296.023204,-277.38298100000003,-268.857998,-319.716184,-306.6339,-239.729505,-341.322777,-311.196285,-311.05361400000004,-304.040706,-290.79251800000003,-317.341852,-266.332493,-305.671137,-294.17244500000004,-322.897631,-319.866792,-293.661728,-328.052037,-219.2915,-294.639754,-309.379398,-288.29884599999997,-343.21680200000003,-321.850045,-307.106357,-300.708821,-308.89418900000004,-279.85350800000003,-306.647918,-303.546225,-295.582266,-297.687038,-334.574,-343.31420299999996,-289.1463,-319.491373,-268.838358,-249.147998,-299.853788,-331.644381,-230.227158,-276.779538,-307.463493,1438.4900910000001
22,276.6,-282.239571,-253.003273,-260.582017,-285.16701800000004,-298.77702400000004,-243.46261299999998,-330.53423,-255.72265699999997,-221.41862000000003,-307.111922,-309.414263,-314.195375,-211.088011,-263.358,-286.002786,-319.30071,-305.627776,-243.46773,-318.41225,-308.36629300000004,-292.26088300000004,-307.063573,-257.437343,-323.147763,-274.99624500000004,-325.933196,-300.62710899999996,-316.67103199999997,-317.355859,-289.65700899999996,-324.86888700000003,-222.260361,-331.887478,-312.503498,-291.150826,-375.349706,-329.130168,-311.41445,-303.937542,-291.753733,-314.062601,-304.522177,-303.397784,-294.896684,-298.543808,-335.39703399999996,-331.583971,-268.8295,-315.424906,-253.276171,-244.300889,-294.608451,-318.705865,-222.973627,-276.32491600000003,-313.042452,1526.5965
23,287.28,-295.55017999999995,-276.21313599999996,-286.140773,-281.809175,-286.278544,-254.35570800000002,-347.296241,-245.38157,-219.58058599999998,-295.428691,-294.51613,-302.48548,-232.082312,-247.663763,-255.60771200000002,-339.312245,-293.043737,-225.7462,-290.836812,-297.500785,-283.63213199999996,-285.63185699999997,-222.55242900000002,-321.336474,-289.401728,-301.846521,-283.395644,-318.089622,-302.679474,-280.330696,-303.13498,-196.372546,-320.510847,-333.640898,-306.425907,-345.910147,-316.803308,-311.088733,-277.377523,-279.446143,-323.20133300000003,-303.24543700000004,-316.888852,-290.526473,-301.190998,-248.786454,-336.055775,-267.395448,-315.88307599999996,-269.696244,-262.720636,-288.183781,-322.469587,-276.198589,-289.315649,-350.611327,1596.693883
24,297.965,-253.790724,-219.27753700000002,-270.31247,-243.90029199999998,-281.207323,-228.679782,-323.048435,-239.341419,-207.115344,-272.69311899999997,-268.931805,-274.494311,-275.765441,-246.225115,-222.601177,-291.638073,-272.293857,-209.280268,-276.636475,-275.81264100000004,-257.971927,-287.72612599999997,-250.250532,-260.48899,-244.55467000000002,-295.042299,-259.622117,-291.53941499999996,-278.17789,-269.61722799999995,-285.488517,-152.897937,-262.649993,-309.410461,-260.67879300000004,-312.004629,-266.845248,-277.010375,-240.27814500000002,-243.969952,-251.58095099999997,-270.028461,-268.160393,-242.750748,-250.008145,-185.019035,-276.351983,-223.62047599999997,-276.995751,-259.614008,-218.318439,-237.567348,-262.297499,-266.224917,-268.916806,-326.194206,1684.965822
25,310.65,-214.58490299999997,-236.387542,-207.989934,-210.680746,-207.800374,-183.752014,-217.45151099999998,-217.736916,-175.381656,-211.859344,-209.082737,-227.92159300000003,-233.63015,-176.937599,-192.60313200000002,-246.516049,-205.51511200000002,-158.081664,-219.265845,-204.78683600000002,-217.505389,-228.539181,-206.42226499999998,-232.643723,-202.728527,-217.98112400000002,-200.491357,-235.40485,-233.725773,-208.118723,-231.92380699999998,-185.835722,-243.678184,-246.268958,-228.21366,-265.045957,-217.91102200000003,-225.01714500000003,-213.63734399999998,-216.194029,-190.094557,-225.878223,-218.13085499999997,-216.50809900000002,-208.848649,-167.680779,-236.60877299999999,-183.39668500000002,-221.658839,-189.648449,-172.839107,-213.554738,-233.63670499999998,-199.74421999999998,-204.670958,-378.25088999999997,1566.65499
26,318.535,-294.471901,-321.61133,-310.324075,-281.240834,-287.218314,-279.264579,-342.468282,-258.80508399999997,-253.90958700000002,-298.118546,-292.263482,-310.375167,-308.358091,-303.614782,-290.89231,-353.019857,-317.35576299999997,-252.294889,-320.771006,-297.375684,-301.538731,-302.80332000000004,-314.383035,-343.29121499999997,-295.872477,-305.03430099999997,-290.015306,-324.660547,-316.64968,-297.530594,-320.95566099999996,-402.573108,-335.343905,-339.841611,-362.54996,-329.003798,-311.85314700000004,-329.343827,-319.975751,-297.227485,-282.34230099999996,-321.50387,-304.279388,-315.97662,-307.429692,-266.437182,-347.9199,-281.644657,-316.70311200000003,-308.714771,-275.556324,-311.246008,-367.73405099999997,-307.447606,-306.26919100000003,-522.808219,1492.068019
27,326.415,-269.935371,-270.461826,-292.987898,-258.812375,-242.401677,-242.843477,-280.47896000000003,-306.571085,-226.902729,-249.147013,-241.605946,-257.477929,-276.004531,-247.43812999999997,-262.668257,-305.027857,-315.931343,-194.645272,-271.487798,-239.57613999999998,-251.562181,-249.586459,-268.21842000000004,-310.461169,-248.49739399999999,-285.852315,-235.35430899999997,-263.316999,-263.61926,-235.232657,-253.12170600000002,-230.27491400000002,-274.10501800000003,-294.595607,-270.86237,-268.175861,-244.30571,-266.389627,-241.717434,-222.48363999999998,-240.884461,-264.76162400000004,-253.939244,-253.566874,-252.951877,-218.998318,-269.45973100000003,-237.546642,-250.445377,-242.270567,-215.55075,-247.013081,-274.44601600000004,-228.62065099999998,-250.10026200000001,-352.65615299999996,1364.169591
28,334.315,-340.481973,-313.174356,-385.08026,-331.79455099999996,-309.082636,-330.164269,-382.608423,-348.810364,-327.726021,-343.31906499999997,-325.14601600000003,-337.329405,-349.65515899999997,-347.668954,-328.926381,-373.53845099999995,-346.781106,-305.543951,-358.90133199999997,-327.444131,-330.562863,-330.977047,-351.54658,-361.55964500000005,-334.351697,-365.945858,-329.604622,-314.302257,-335.80073,-313.77603999999997,-318.642554,-204.896039,-319.95547799999997,-364.03155,-302.57865499999997,-339.078723,-316.312926,-338.40729,-305.744844,-275.844268,-323.338046,-317.926204,-328.270404,-330.31321,-335.372302,-299.139399,-310.550818,-301.05408,-311.31487200000004,-335.358052,-290.907034,-326.44536600000004,-299.957606,-301.071434,-328.674105,-284.826949,1332.20443
29,342.2,-316.429163,-297.927099,-324.94101,-303.407426,-279.124503,-311.988109,-340.501093,-308.19444100000004,-296.006413,-305.203823,-297.137832,-318.463291,-336.237137,-309.627598,-335.674757,-324.85289900000004,-313.888134,-304.826879,-321.27767,-302.680732,-316.33468799999997,-297.779257,-282.668152,-373.89286200000004,-311.74048799999997,-321.567596,-311.390975,-288.744494,-329.50703799999997,-288.450634,-316.285707,-326.36728999999997,-334.48767599999996,-318.613068,-331.628466,-336.757927,-318.455172,-330.338772,-333.662687,-275.179816,-340.669039,-326.214137,-309.181378,-258.31796099999997,-285.51211800000004,-299.141556,-324.51369900000003,-291.16626,-311.05136699999997,-343.905753,-309.321927,-377.039664,-330.715105,-292.020174,-298.982035,-317.82757599999997,1102.27866
30,357.65,-294.967831,-276.676409,-329.737527,-283.287938,-262.791066,-304.18917400000004,-297.209037,-340.34511499999996,-284.08115499999997,-262.02918,-258.618624,-277.933405,-288.005109,-364.72265,-319.418453,-299.589124,-259.811777,-238.79707200000001,-259.417062,-258.30219,-275.76966400000003,-280.246609,-309.838688,-316.567864,-291.475114,-290.111763,-270.502187,-254.412579,-275.973554,-248.061718,-276.599737,-266.213305,-306.017093,-296.83571800000004,-286.07012000000003,-281.739282,-248.09572400000002,-275.602621,-273.309688,-197.729971,-309.362042,-298.42103199999997,-290.81216,-307.039851,-300.352391,-253.155642,-254.61526099999998,-265.71375,-265.536022,-324.82395099999997,-293.690191,-303.94669300000004,-250.242252,-287.968862,-297.755584,-164.506947,882.6080400000001
31,368.35,-278.86170699999997,-283.26324700000004,-299.740387,-263.632744,-256.693313,-284.68626800000004,-281.467721,-306.60003900000004,-277.523569,-240.246758,-235.192048,-252.61532000000003,-269.303513,-297.800818,-314.090721,-275.03845,-245.69903,-239.381685,-256.45730499999996,-239.677504,-257.781264,-255.440827,-294.384686,-303.215039,-260.53988300000003,-287.152239,-267.45799500000004,-253.178484,-257.539586,-234.21457,-257.941497,-285.753035,-301.856211,-275.808276,-266.704593,-269.70646800000003,-252.153538,-258.425212,-228.13265800000002,-178.034943,-295.75647799999996,-287.957173,-277.51167000000004,-271.692654,-256.569732,-247.581904,-238.97277599999998,-259.51118399999996,-245.43030699999997,-281.68978,-275.848615,-265.644257,-240.58292400000002,-262.299092,-304.245699,-185.70838899999998,771.74556
32,379.05,-303.05924500000003,-303.531116,-380.448987,-273.40002999999996,-283.786478,-318.453988,-317.071369,-338.461165,-307.101489,-241.510528,-232.24670600000002,-246.83328500000002,-286.45860600000003,-307.752466,-309.819733,-323.500456,-267.412156,-215.607943,-277.43534,-248.683933,-262.008893,-246.617583,-329.01559100000003,-324.17085,-294.461775,-281.483793,-252.27683100000002,-234.76535299999998,-243.107813,-245.650033,-233.80319900000003,-334.842779,-321.66111800000004,-286.624107,-282.016896,-262.215343,-253.400697,-239.87034599999998,-182.588252,-147.811419,-311.742145,-283.64375,-264.723339,-273.434608,-285.08907200000004,-240.657969,-223.08325699999997,-238.843929,-237.403461,-312.597574,-282.971226,-261.541837,-247.638316,-283.602055,-316.705214,-222.939328,692.635232
33,389.72,-309.950376,-321.555837,-349.065922,-288.500001,-279.975612,-311.465055,-284.569614,-367.030154,-327.82957799999997,-247.11639100000002,-239.535322,-238.998671,-279.823492,-291.37773,-307.76944199999997,-289.155347,-260.66178199999996,-248.31284,-260.548457,-243.25053799999998,-255.333984,-236.76679199999998,-326.729466,-308.391882,-283.027473,-280.371987,-252.411913,-222.73215699999997,-249.37165299999998,-238.914484,-228.042463,-102.343858,-277.784891,-254.206957,-242.679385,-247.561086,-257.41547,-222.34281600000003,-219.582294,-152.116048,-316.489235,-284.804927,-261.267443,-279.54879,-289.821007,-248.676668,-174.742858,-245.801148,-235.31267200000002,-302.710655,-281.925128,-272.53878399999996,-153.000765,-289.140767,-303.809209,-36.817881,520.241502
34,400.4,-265.621702,-272.89734500000003,-302.946215,-235.783793,-225.464563,-273.234378,-324.367335,-297.031446,-253.99439900000002,-180.446226,-188.25696200000002,-188.742947,-286.05976,-232.05969199999998,-275.336255,-330.017794,-264.51536400000003,-189.013886,-206.221802,-196.29596899999999,-208.19248100000002,-194.820806,-277.130165,-290.932307,-313.891302,-276.47724500000004,-193.677538,-185.003558,-209.01024099999998,-200.345068,-197.28373,-115.055356,-268.087298,-238.671786,-215.615275,-199.991757,-233.374575,-184.14306100000002,-208.353928,-129.468274,-291.434904,-273.028125,-239.873152,-247.846884,-236.20917799999998,-226.24093100000002,-142.80971,-207.071139,-210.422749,-284.154705,-262.184053,-239.65863199999998,-123.588066,-232.92237200000002,-288.253189,-105.74823799999999,528.554395
35,413.07,-267.732867,-276.874329,-289.242551,-241.86882400000002,-222.162073,-277.339624,-273.75894900000003,-296.446998,-286.21482000000003,-185.64412,-190.81986899999998,-210.35933500000002,-297.61769100000004,-261.6454,-277.080936,-274.022467,-231.320702,-228.634842,-230.830365,-205.748798,-236.34944,-212.54039500000002,-326.489096,-283.978972,-260.213974,-282.644947,-223.632027,-209.224706,-224.332883,-217.99805800000001,-205.11150800000001,-164.83742800000002,-295.69632,-216.618135,-287.74836,-156.430934,-255.169452,-196.202628,-213.00770899999998,-160.674401,-299.717678,-270.318686,-234.638302,-260.04204100000004,-239.810514,-260.621064,-163.796438,-226.751577,-214.822532,-288.036897,-268.910346,-255.82629500000002,-154.670596,-283.919804,-298.299523,-199.451866,390.909889
36,420.935,-234.0571,-259.808255,-265.13509500000004,-195.96203799999998,-165.372968,-262.123789,-257.022169,-244.16084500000002,-242.030741,-130.932895,-139.381357,-155.166109,-243.43703399999998,-173.08564099999998,-234.299416,-277.639352,-203.808863,-185.59006200000002,-178.142597,-156.518444,-184.039501,-175.15076299999998,-284.78309,-250.44571200000001,-235.56689,-248.382626,-183.60509199999998,-183.23638200000002,-177.24483999999998,-173.623269,-171.652918,-295.38155,-298.735261,-212.826325,-314.387824,-89.961546,-222.845829,-162.246893,-203.439044,-140.330145,-273.30847,-247.177849,-215.105108,-237.50950899999998,-212.271339,-237.936479,-158.303583,-195.205566,-191.94700500000002,-269.463578,-250.48709,-231.383945,-174.09385,-282.46085800000003,-288.815155,-317.472499,375.38939700000003
37,428.805,-199.72616299999999,-230.095723,-223.631609,-161.141307,-134.263846,-228.77006,-191.582515,-220.827925,-203.252981,-94.13356,-104.041949,-108.643876,-194.608397,-175.90903899999998,-178.893506,-195.09483,-155.078316,-143.376845,-133.46791100000002,-119.74208600000001,-138.617851,-123.302876,-253.56292799999997,-194.713301,-159.970333,-191.013404,-130.118642,-91.220679,-120.616221,-118.14480400000001,-96.888067,-5.619498,-201.115579,-128.569812,-196.98073300000001,11.781737,-156.651084,-91.954146,-112.185875,-55.930966000000005,-203.458483,-174.58006,-133.652775,-162.45748500000002,-140.926806,-143.75669399999998,-26.897436,-105.55824399999999,-113.097674,-146.033126,-177.90536799999998,-156.247764,-4.907339,-214.56165099999998,-206.996538,-42.886028,298.680435
38,436.67,-202.804846,-233.89466000000002,-191.614937,-161.408275,-106.43194799999999,-200.638308,-160.07688100000001,-227.289027,-169.59226,-66.249038,-83.7039,-93.12081500000001,-141.397153,-123.80958100000001,-193.70575300000002,-186.139466,-135.291579,-160.242643,-107.491409,-87.554424,-125.33642900000001,-95.671562,-216.905575,-191.066679,-158.99286899999998,-170.11058400000002,-126.69462800000001,-90.534605,-117.13995200000001,-95.775335,-96.197843,-108.882927,-210.33759300000003,-113.18312,-208.98196299999998,3.527595,-147.371229,-83.75900899999999,-104.169258,-69.63099799999999,-196.106754,-167.514421,-128.339921,-165.438486,-121.74115900000001,-154.62336200000001,-46.219312,-115.948374,-105.50086499999999,-158.907457,-179.200978,-167.30582900000002,-36.04614,-183.46232,-178.980582,-139.72141000000002,245.65174100000002
39,444.535,-255.995302,-290.76202,-283.551919,-222.72670699999998,-154.72767,-286.256939,-215.633989,-301.798811,-262.327165,-133.879737,-144.062655,-133.693597,-171.66999099999998,-231.72282,-246.762529,-218.86483399999997,-198.79564299999998,-216.807986,-190.532252,-156.284472,-165.938572,-133.172891,-335.522036,-258.200406,-189.231682,-240.23501800000003,-164.608915,-107.503803,-150.798443,-142.72778300000002,-114.67742,-268.961819,-276.205217,-165.27104,-268.557648,-18.488664,-173.385421,-118.302903,-125.817977,-79.964101,-250.846742,-201.83741,-158.432727,-215.491558,-188.672625,-210.690082,-84.67535,-151.365783,-142.57084,-265.258549,-242.276053,-203.75198799999998,-109.36881499999998,-289.003197,-263.56969300000003,-292.840578,157.16318
40,457.155,-218.422985,-259.436269,-259.691917,-178.855327,-91.171221,-235.78606499999998,-232.33935,-245.25114900000003,-224.35848,-82.279873,-98.366096,-89.375353,-124.90578000000001,-221.28303599999998,-212.70394199999998,-253.64886600000003,-228.56592799999999,-204.708877,-134.17283899999998,-115.51806299999998,-120.85596699999999,-104.779388,-316.19387400000005,-207.909054,-179.091361,-255.61406200000002,-146.30007700000002,-82.818998,-123.494147,-106.17881899999999,-88.99683399999999,-209.391084,-245.424738,-128.429555,-227.46590099999997,-68.11621099999999,-165.595346,-112.13435700000001,-110.53085,-80.588699,-227.93565299999997,-161.066529,-134.24823899999998,-165.70861000000002,-134.795332,-184.653185,-53.892509999999994,-139.672552,-108.80954399999999,-242.159394,-226.74230899999998,-160.476495,-67.031125,-269.294555,-223.10815899999997,-176.209993,186.261506
41,465.02,-136.39236599999998,-184.497064,-111.63731399999999,-97.101384,24.155501,-129.543378,-95.690802,-179.560577,-112.969445,28.452826,7.790991,13.097976,-60.489447,-109.75903100000001,-137.75480100000001,-169.741998,-118.24248,-79.990984,-0.77582,1.83972,-15.360184,-5.853885,-190.91320100000002,-155.159978,-110.22453999999999,-100.32880899999999,-25.340809,21.081398999999998,-29.326259000000004,5.022287,-1.652548,1.964598,-162.889656,-14.391507,-68.792458,-13.86561,-63.859576000000004,-0.158103,-18.152673999999998,3.526706,-144.690717,-76.55374599999999,-44.287836999999996,-72.770492,-26.90405,-60.730996,74.321138,-37.953426,-18.822936,-132.42885,-116.409545,-72.127115,98.370235,-183.60335700000002,-115.29601100000001,73.95523299999999,51.977488
42,472.885,-188.510426,-251.810398,-194.993629,-144.672081,-37.653328,-224.14407200000002,-142.024854,-232.43853,-180.078192,-33.195149,-47.885709000000006,-33.974024,-76.110558,-188.809192,-197.132956,-185.169012,-181.583505,-126.67196899999999,-76.406228,-64.48604300000001,-62.111357999999996,-46.103328000000005,-284.958152,-203.193863,-127.218383,-175.409482,-71.20411800000001,-17.512093,-73.64840500000001,-47.180115,-13.205741,54.427903,-192.561779,-65.77019399999999,-62.453537,-62.12301,-87.243444,-21.102722,-24.31312,-12.429021,-171.069039,-106.39899,-65.38065300000001,-110.50531200000002,-84.062325,-78.432694,76.277112,-49.461847,-34.728158,-179.84178899999998,-122.67415700000001,-100.645291,103.173699,-226.975896,-164.2018,90.390049,-67.297253
43,480.755,-133.919399,-191.052286,-135.48030500000002,-83.038836,-20.01829,-141.87683700000002,-87.234369,-161.215298,-106.05091200000001,47.643428,23.40182,25.485815,-37.990121,-125.58845500000001,-108.29149199999999,-153.791424,-139.03301299999998,-59.974889000000005,-7.2060130000000004,2.348013,-8.604783,-12.575056,-265.391955,-165.43147199999999,-92.552761,-134.432999,-8.15213,43.569340999999994,-20.173030999999998,6.774903,23.351459,-125.700399,-144.129941,-34.036077,-113.587643,-21.533610999999997,-46.867641,26.942859000000002,19.816909,5.70015,-136.485962,-61.981407999999995,-27.632176,-103.545165,-70.724938,-46.549408,78.87424399999999,7.001005,7.620062,-151.439965,-150.03378899999998,-98.23992199999999,66.871461,-199.364154,-128.28986899999998,-38.97925,-27.647075
44,488.62,-65.040051,-114.49416000000001,-53.596821999999996,0.540478,129.796528,-30.926261,-36.684683,-90.66305899999999,7.655532000000001,157.370733,129.821411,133.400546,59.116748,-6.792853,-9.163972,-86.273537,-34.400987,19.897562,111.879121,125.199051,97.307878,110.60965800000001,-115.684276,-67.812655,-25.802429,-33.158825,72.073151,124.96495300000001,80.821718,118.52846699999999,128.969766,111.078754,-40.050117,53.194013,-11.88584,63.361702,35.920708000000005,129.560781,127.949353,77.91549499999999,-42.893415999999995,29.687124,49.342932,-8.456487,45.041264,36.118031,192.75817800000002,109.78440400000001,97.80856,-68.50252900000001,-24.800452,-9.253452000000001,218.161138,-83.903674,-12.576761,90.868392,-100.29125
45,501.22,-117.20888799999999,-191.835964,-74.767083,-58.352787,83.733432,-116.59408300000001,-65.013376,-140.210823,-87.803986,94.00875400000001,74.640665,87.07107099999999,-0.11583399999999999,-72.911141,-106.81941100000002,-114.690794,-65.88164599999999,-55.648193000000006,51.522821,65.292898,49.967081,59.964467000000006,-204.678381,-142.943223,-77.014729,-69.737009,13.491010000000001,68.441806,42.068803,53.265477000000004,81.329133,79.317525,-100.248064,9.987698,-41.269299,35.077591,-3.6280330000000003,89.089207,73.65121500000001,24.291307,-117.97991999999999,-27.099596000000002,13.819918,-53.226716,-22.377523999999998,-19.450714,164.224162,74.06588199999999,45.135166,-108.484075,-84.793572,-50.277229999999996,193.31751599999998,-168.225971,-72.15244399999999,31.886301,-273.31584
46,509.09,-105.054795,-198.26945800000001,-75.900099,-57.165518000000006,86.03137199999999,-111.08838,-46.307460999999996,-146.08294899999999,-100.076633,102.379944,88.538524,98.52229200000001,3.4378029999999997,-54.837,-79.956181,-80.975243,-57.07714,-48.818566,57.55961800000001,71.059221,53.330026000000004,70.24035500000001,-207.06471399999998,-131.372341,-49.140167,-59.615283999999996,21.482126,74.639578,48.559777000000004,49.442358,97.138411,-3.005729,-113.791683,30.096826,-40.376973,72.201523,6.027736,99.94136999999999,44.459386,42.743902,-110.183947,-8.922375,40.933655,-46.3334,-9.359128,-13.911457,165.67308300000002,85.41290500000001,57.739655000000006,-109.470307,-93.64318100000001,-44.411162,175.094748,-148.980398,-69.273339,-77.27318000000001,-373.477519
47,516.955,-66.024098,-167.243891,-54.924189,-17.71198,119.857979,-100.512695,-2.277388,-116.41223899999999,-75.082949,147.008693,140.644911,149.682758,45.911972999999996,-58.211263,-63.27966,-30.672032,-5.392812,-1.5767,102.323128,107.78074299999999,106.328897,123.91501299999999,-229.89030699999998,-120.07255500000001,0.493817,-41.615671,70.856274,89.562016,110.88671399999998,78.989861,166.263547,8.521685,-71.354249,70.571381,-19.932037,150.202398,60.382962,148.06649,100.191714,114.220128,-77.571927,42.75463,88.77391899999999,-4.5026779999999995,11.64022,18.886728,210.28351800000002,127.38428799999998,104.529714,-75.016511,-66.009416,4.22359,202.18940600000002,-149.777035,-55.011053000000004,-66.711694,-437.560147
48,524.82,-4.460462000000001,-98.610497,18.22823,41.49426,222.757099,17.308415,42.079471999999996,-47.348889,-0.292756,234.666456,220.87802299999998,232.767911,127.865232,81.243477,24.810839,23.855985999999998,55.22651,56.518905000000004,192.78163500000002,209.352449,186.885065,202.78635,-102.98575500000001,-33.577934,73.43662900000001,47.128734,138.74274,178.392335,185.555712,164.138746,235.29443999999998,174.100105,18.148566,147.742989,60.45417,211.50895899999998,120.55891100000001,225.27997599999998,156.709326,156.3884,-8.566257,105.815229,157.515444,109.028764,164.299838,96.167835,303.818763,191.987493,180.192184,29.862446000000002,27.906547999999997,110.04211200000002,328.752732,-35.786198,70.59324699999999,40.898809,-472.89083700000003
49,532.69,0.03136,-114.747496,21.763285,45.896719,203.61883500000002,-20.783186999999998,46.603359999999995,-27.566975,16.790762,235.509577,220.413017,231.59626699999998,120.692006,61.215939,3.243087,32.821417,64.336152,55.215615,176.31587,199.509573,182.638544,199.45431200000002,-138.529502,-79.398917,72.93018000000001,55.90529599999999,138.732002,202.950749,194.616036,159.402088,236.44964,206.09829299999998,-39.979625,135.80434,65.439431,239.59694900000002,129.852983,222.55077599999998,139.909547,99.937441,-15.059270000000001,91.905346,153.201579,95.989722,147.96206,96.209447,299.243893,181.105182,165.066731,-12.741211999999999,-0.268117,97.986508,321.283329,-84.316058,41.132102,-15.255837,-527.820278
50,547.94,-17.846061,-149.65662,8.676286,23.402913,202.349188,-29.361212,41.481107,-61.171744999999994,5.171565,228.685082,215.41004300000003,224.74590899999998,109.31707800000001,27.91157,14.447536999999999,14.981104,29.544543,19.83778,167.211884,188.187037,175.111819,179.62305,-164.375504,-86.01348,47.250741999999995,4.359114,100.966235,177.74261,167.082493,160.449079,210.14494100000002,212.11490600000002,-20.862099,117.38334099999999,88.879166,184.123041,84.634619,202.28886,96.071455,115.6488,-56.78228000000001,66.60404799999999,134.34808700000002,49.652046,88.699628,75.986942,287.18497,150.84555600000002,152.347951,-29.789725,-18.836363000000002,51.75739,326.667692,-113.838452,55.966494,-66.635752,-483.89825199999996
51,558.625,37.089397,-106.106026,46.504258,61.326885,250.86235299999998,5.850448,94.065998,-32.270226,45.430732,272.042368,262.956248,269.25029,166.820784,53.71109499999999,30.559259,67.78156800000001,90.390214,53.712212,198.391121,232.058908,214.515295,230.066146,-143.780723,-56.36393399999999,112.704822,66.51694,148.894215,218.47272900000002,225.40598599999998,212.18585099999999,261.52971099999996,233.34680299999997,45.698855,175.18278899999999,107.80854099999999,242.578184,147.70203,255.386046,145.689986,159.66856299999998,-12.708977,129.878084,202.90487099999999,79.048728,91.68174,120.134477,351.025405,211.28852799999999,210.99189700000002,10.826794999999999,20.922055,84.328022,379.36467000000005,-72.174304,94.754473,-93.114094,-451.66360499999996
52,569.325,58.846090000000004,-103.730663,90.574979,73.559126,269.11264700000004,7.396017,118.458446,-14.693989000000002,55.011269999999996,292.27621,282.034558,278.81694300000004,161.05983700000002,74.48242900000001,28.474207,77.729939,56.504031999999995,61.935463,239.56988399999997,243.92537000000002,220.861816,260.235615,-126.655946,-76.01365899999999,122.08290900000001,80.37395500000001,153.26287,210.258791,226.887089,230.212579,286.232364,185.148624,0.8579540000000001,181.753191,95.880136,261.38481,152.623651,266.60995,174.456384,176.92723700000002,-0.399055,131.026078,204.056225,80.74667600000001,79.85302800000001,138.860734,363.110085,228.05913900000002,230.237422,13.896239999999999,-1.9570740000000002,86.55225300000001,380.536303,-59.893975,111.93521799999999,-162.775241,-519.0598150000001
53,580.04,22.279536,-112.918609,30.608757,49.017607,257.889279,-25.563278,93.85794,-62.693383999999995,23.638596,271.201908,269.269887,282.070196,145.01900600000002,39.176294,65.877317,65.565946,41.799433,40.183424,238.64654700000003,221.286242,223.403633,236.18018700000002,-168.003197,-64.505851,100.115346,60.934635,144.407158,210.01636200000002,215.58653999999999,211.88360099999997,292.706637,303.34332,-7.149684,170.167401,108.602052,205.206302,149.030342,262.209587,185.539003,175.949342,-3.03329,131.362423,204.501876,73.369088,57.53715699999999,136.607305,386.713252,225.784727,224.01459300000002,-19.695217,26.048258999999998,84.10002,421.970043,-64.646934,80.928741,-122.51881100000001,-585.438901
54,590.725,52.918913,-105.32933999999999,61.023247999999995,86.789695,280.801112,-26.0208,98.357337,-10.596799,49.948161,310.035993,300.872964,305.058538,204.381485,81.584797,66.732822,87.142553,81.51435500000001,60.017787,242.479927,244.44038500000002,245.84163700000002,269.156758,-172.540231,-77.09909300000001,123.377885,57.657167,149.121834,229.562978,247.902494,224.987542,312.0113,137.327144,-24.322253,175.749641,78.965198,241.62264900000002,157.915378,267.286384,171.496603,168.441178,13.500939,142.71964599999998,219.899739,61.99783000000001,41.662703,127.99619399999999,365.92881800000004,243.027712,232.026471,-26.286301,-35.28018,71.981104,369.712645,-66.824128,84.894803,-236.344987,-882.677735
55,606.205,118.802972,-32.001356,138.46574099999998,151.42676699999998,373.341412,59.36767,166.24874,30.830102,127.158129,406.6804,387.067411,388.312188,271.742276,205.63881999999998,150.99478200000001,163.031099,195.341184,128.77073700000003,337.880809,338.31258199999996,332.141214,347.100265,-80.39648299999999,2.978766,196.790967,145.463658,234.00934300000003,302.759012,328.35141600000003,309.964209,391.656867,249.136848,65.05001700000001,244.173253,198.677993,302.90702799999997,232.763352,342.674683,262.386192,224.52247799999998,79.343265,207.573755,298.404998,146.913231,126.415977,202.55035900000001,465.032236,312.04977599999995,318.478747,49.439361,46.726296999999995,155.04533899999998,482.3799,1.094735,177.95946999999998,-121.101997,-943.4263699999999
56,616.875,145.79826699999998,-5.833079,166.27036,191.680723,406.941485,88.26705799999999,222.946617,57.949188,167.875849,463.94095300000004,446.313954,469.611695,328.473862,238.64312999999999,141.982624,197.714719,229.06217999999998,189.267021,423.85871299999997,400.983723,411.220077,415.062161,-75.26783499999999,24.671694,213.01560600000002,201.067152,299.84308500000003,354.514614,385.110406,373.642552,464.77391900000003,443.812038,137.722041,281.79866200000004,265.769563,356.85531299999997,289.39805099999995,406.29299100000003,318.28506699999997,291.968406,90.47223699999999,253.388572,345.9889,190.67406,177.854429,257.649692,555.568291,356.47159,373.249559,89.098801,138.348233,196.3952,596.6415450000001,39.040858,243.225819,-15.830363,-1067.793
57,627.56,81.96243199999999,-62.28051899999999,102.212921,126.94489399999999,353.694894,20.003415,181.688973,16.970499,71.130493,399.856333,388.925415,411.452364,283.830693,141.290683,74.867515,158.903211,213.50123,94.460278,356.110685,335.765983,348.592107,379.368022,-158.031489,-39.789871000000005,208.248017,147.080291,229.268225,285.25338,330.940592,317.860508,428.83025599999996,225.379504,42.828356,250.12062000000003,191.75225700000001,287.10815499999995,240.268656,350.0553,248.295318,245.81408900000002,49.292551,207.307271,320.942989,115.743329,91.596006,203.609929,486.678154,310.869896,333.20711800000004,8.242851,44.428694,125.665122,495.522091,-1.4318389999999999,164.577473,-158.51271599999998,-1170.383225
58,638.24,114.262635,-53.06706,133.682952,151.518769,370.510785,27.987727000000003,185.223284,40.141166,80.633658,428.667626,414.501162,437.70690099999996,266.022224,125.916474,117.262051,167.33404099999998,202.919043,127.15879299999999,379.47621000000004,358.043096,372.25816499999996,385.015005,-189.447596,-18.063628,214.450625,155.30205700000002,242.29080499999998,305.94374799999997,347.77599399999997,334.89914500000003,445.548275,236.258685,70.431234,247.818398,178.83070800000002,312.008292,248.395802,366.518783,251.811175,266.00776099999996,49.930448999999996,210.867995,316.46344300000004,92.602468,99.420022,190.684109,500.20037,307.39432400000004,339.96193,-5.965136,25.471242,96.588546,510.23482699999994,-20.255535000000002,161.674488,-169.863503,-1284.895897
59,648.925,154.681432,-6.378101999999999,197.29877199999999,195.376466,424.999617,87.28532,236.21898199999998,97.56581700000001,139.62163999999999,489.97809000000007,469.163756,489.865173,351.300233,196.251026,163.306966,227.67022200000002,282.529696,172.615777,445.58198799999997,419.434877,421.951058,444.600559,-105.549567,9.907238000000001,282.580586,254.50183199999998,291.663385,358.191637,406.255859,387.850799,509.060111,354.711473,124.53083400000001,331.62618,232.903264,332.173315,290.906431,415.72537400000004,302.18051099999997,304.902399,118.172197,271.870293,388.39579399999997,175.454647,178.176153,235.57484900000003,576.534875,350.792571,412.487545,63.34175,107.970942,177.836403,602.576183,44.399594,251.39296000000002,-71.90129,-1438.1425550000001
60,35.97,184.911306,448.26296900000006,220.093954,226.130836,51.252506,255.92004500000002,121.643745,278.727438,131.76588999999998,-40.948271999999996,-95.959911,-89.329463,100.92116,56.308220999999996,141.496753,166.469157,172.58656200000001,148.97669299999998,31.171178,-7.6715279999999995,-78.784968,-43.53331,307.69895299999996,267.84666699999997,155.33098999999999,81.006524,53.191039,-136.903187,-43.501633,-63.030792000000005,-112.68679399999999,-154.68438700000002,209.05151999999998,308.449314,25.17193,80.281145,68.287262,61.125744999999995,112.41904199999999,134.08693200000002,195.313045,75.53704300000001,50.089323,224.506206,283.90083799999996,-0.8213860000000001,-166.54744499999998,127.373627,8.463631,138.938937,161.734526,245.442296,-225.53187000000003,279.33923500000003,306.540805,242.966822,8.742198
61,46.67,154.206031,387.966156,169.149935,207.913222,22.929181,220.28878999999998,89.447608,268.25613599999997,109.91026699999999,-50.598341,-102.43519599999999,-95.463525,55.684321999999995,25.882883,76.47201,91.88544,172.028692,136.53266200000002,8.275523,-16.587764,-82.20479399999999,-50.453103999999996,259.984008,223.530286,102.318658,80.465655,44.388011,-166.167527,-51.499545,-67.98895999999999,-111.495425,-158.808868,171.39420800000002,255.62852400000003,-39.543735,67.349582,54.345255,50.176592,88.50549699999999,105.732355,175.00384499999998,52.448888000000004,23.795246,204.638543,265.747975,-0.129932,-173.210413,112.599498,-6.201637,116.366753,139.09271999999999,225.488376,-231.308796,259.86827400000004,273.17599,179.795415,47.921331
62,57.355,165.112424,400.87677599999995,184.505553,224.439933,58.221093,247.583827,108.529155,324.694389,174.13401000000002,-15.399417000000001,-76.994155,-76.023756,71.381665,70.59875,122.45111000000001,132.087519,220.05754900000002,159.533491,56.731537,6.795011,-63.915326,-31.112296,294.424956,244.87607799999998,133.454036,117.08046499999999,52.970998,-147.179232,-30.852721999999996,-52.534634999999994,-84.489254,-45.722509,178.54978300000002,285.071304,12.369436,75.342019,75.590085,65.76276700000001,89.19652099999999,101.345803,178.558424,54.527944999999995,38.518491,220.086208,276.753375,-3.6090769999999996,-144.55616799999999,104.295897,-0.32556599999999997,135.78083700000002,136.55738300000002,238.286309,-179.641522,267.832738,291.463709,229.370696,82.633809
63,68.055,138.055869,368.051264,147.508258,179.98699,42.850749,235.498979,88.920715,272.95620099999996,126.156654,-32.139914000000005,-93.66200400000001,-89.685668,48.780515,48.057016,107.35127800000001,106.15545700000001,171.120524,131.155951,70.199905,-6.944382000000001,-75.969587,-42.478984999999994,298.29983300000004,258.387726,81.336612,95.5706,58.23774,-140.04533,-41.784042,-65.027498,-110.262321,-25.606926,198.206954,250.975241,32.567173,96.070738,66.256118,53.049581999999994,71.546883,91.344751,162.31310200000001,56.35882900000001,22.571574,205.26558400000002,257.00983199999996,-8.265594,-137.42223,87.757898,0.9996440000000001,127.20104099999999,127.701024,222.82700899999998,-163.806983,257.54855699999996,276.12289300000003,269.503111,227.263682
64,78.74,63.113163,275.712406,65.69974599999999,107.533658,-41.136779,133.327675,30.874340000000004,196.84950600000002,23.393023,-109.19487,-160.364316,-154.083291,-11.37942,-38.025465000000004,19.297962,42.409995,102.28812099999999,57.519454,-31.785248,-93.226597,-141.291074,-124.50579099999999,188.17803500000002,156.99076000000002,0.825558,11.680209,-21.788068,-181.210831,-112.43788300000001,-144.49531499999998,-167.860307,16.982753,99.054288,167.498783,-53.759737,60.663573,-0.81706,-14.655121,16.873452,31.667285999999997,74.970028,-20.700108,-45.041536,101.53289000000001,134.777151,-63.510194999999996,-175.33207,8.451245,-84.01696899999999,32.635433,41.514077,124.89815700000001,-192.312259,144.825201,180.211613,274.139975,186.901434
65,94.17,119.119514,295.292639,120.034044,149.822898,6.246647,175.32294,66.484162,230.38290899999998,53.739298,-50.08243,-97.416224,-84.807829,23.337296,20.316525,68.991388,64.471065,144.45966299999998,82.626813,19.447412,-27.645181,-75.500969,-67.61541,204.754114,178.305111,73.525729,41.023422,16.72962,-111.66781999999999,-46.625965,-99.711528,-111.427484,-145.854903,115.335254,196.463275,-71.505404,103.594909,31.272738,18.41129,31.37974,69.264208,98.52982800000001,20.566216,-13.562532999999998,110.461556,153.122022,-42.368753999999996,-158.491779,40.936338,-33.924996,70.181843,83.037306,130.428211,-205.061192,189.94305,218.135694,244.948529,348.31649
66,104.84,58.666706000000005,244.03941099999997,42.962303999999996,86.835266,-33.341163,138.037207,28.57457,133.92514599999998,-2.009439,-100.27235999999999,-137.31986799999999,-127.82911499999999,-15.486778,-21.865123,34.704525,42.949771999999996,94.964439,10.731807,-24.972012,-70.731177,-118.924218,-103.807733,207.096809,185.089447,56.084185999999995,2.227569,-20.90342,-140.847657,-78.345438,-136.212823,-130.913003,7.900232000000001,135.311036,161.323841,-113.91872,68.509759,7.384977,8.714077,21.890912,52.85641999999999,62.880489000000004,6.0782110000000005,-30.755768,71.624612,114.72429699999999,-50.667629999999996,-141.68968,8.449036,-49.226797999999995,42.536146,64.610968,94.62321700000001,-163.73986100000002,166.816178,182.102227,370.57459700000004,273.597397
67,115.505,115.29831200000001,295.178519,97.529375,141.499827,17.587962,187.77801499999998,88.868076,174.281518,43.684397,-34.035363000000004,-68.757053,-65.458686,72.09093100000001,19.773679,98.796247,58.351266,139.63566,90.167645,39.700987,-2.432561,-57.432364,-29.791798999999997,260.26052799999997,221.20801200000002,87.963063,82.240126,38.277066,-62.52231999999999,-15.024151999999999,-72.00773199999999,-67.529074,-120.86946699999999,157.086173,202.676142,-89.61973,125.70526299999999,70.21807700000001,71.23775,56.5359,100.447389,132.219829,57.516649,22.299907,127.25303500000001,172.59776200000002,11.593299,-109.46984599999999,66.23521600000001,10.969536999999999,102.11169,124.718965,146.766161,-159.994651,194.084335,223.640528,307.02244,307.78781499999997
68,126.175,117.904242,288.168811,91.392045,146.427736,43.512078,200.174726,70.06961700000001,179.62805,56.915704000000005,-20.539529,-53.941576,-45.514276,69.818154,19.117082,131.40060400000002,92.38519699999999,118.556174,86.313343,41.317652,6.236209,-33.385743,-13.044116,271.198369,231.53893300000001,101.171285,65.323903,41.708932,-55.113825,-5.032175,-63.039080000000006,-40.044984,147.980061,177.903355,218.81601600000002,6.163684,153.256247,77.71058000000001,89.537401,43.614649,116.166895,143.373411,72.18584,28.563071,143.034493,177.080939,19.423149,-46.14918,84.97345200000001,34.217582,110.896151,140.318255,164.176875,-55.440163,244.543381,223.164817,456.90701500000006,295.56627000000003
69,136.84,49.677084,199.618463,28.032266999999997,85.005466,-41.182777,108.71565600000001,22.416373999999998,114.379447,5.954267,-71.132072,-117.8391,-109.32513200000001,22.339103,-59.783964000000005,56.980789,33.005045,48.074364,46.226061,-12.235287,-54.893933999999994,-103.454975,-78.656373,178.959035,153.425874,28.101852,-16.506527,-11.165919,-110.275246,-66.83671,-118.18800800000001,-98.40365899999999,70.825467,96.702392,148.806543,-59.567398,53.812810999999996,9.816166,31.227832,-30.405723,37.259928,68.760887,6.279354,-39.478084,73.341813,113.293699,-51.028465000000004,-109.039475,10.259121,-32.274555,67.098337,72.389986,91.475755,-120.55341499999999,175.318255,136.80043799999999,405.46303,278.512916
70,149.275,84.938762,221.39937799999998,102.476224,115.988421,20.724266,159.261186,75.12062900000001,167.74210300000001,60.989699,-30.727483000000003,-70.18339300000001,-70.036106,10.772254,14.519295000000001,85.145843,75.173364,105.96744699999999,54.521152,18.056507,-16.234704999999998,-62.989406,-39.861139,201.52844,177.28501200000002,67.73594,40.179262,13.493255,-74.563971,-42.29146,-78.710515,-69.195872,74.949682,121.72876000000001,201.599376,-27.469952000000003,76.062026,32.923857,62.782626,-47.646533000000005,41.913016,90.179126,36.743747,-0.8573379999999999,93.26811,135.126624,-37.488424,-75.495899,26.484126,2.7484740000000003,95.750025,86.480039,110.07079099999999,-80.99821700000001,184.40936299999998,152.177765,416.65306699999996,249.411273
71,157.14,30.889488,173.560293,38.725141,57.491601,-40.765878,102.379295,17.378691,91.652477,3.032972,-81.404659,-115.996784,-124.62303600000001,-61.367878000000005,-57.06945,33.66603,13.878054,56.711754000000006,7.65263,-33.815239,-68.40979200000001,-118.34589299999999,-93.95939200000001,143.28431799999998,120.943809,-7.052839,-32.243,-41.732045,-126.908251,-95.823826,-140.480821,-119.83299299999999,29.118879999999997,84.282273,136.336298,-55.079602,22.225187,-34.060582000000004,9.39685,-133.074849,-28.779506,34.395547,-18.809687,-42.266645000000004,25.060582999999998,70.650936,-99.171199,-131.15560200000002,-6.942788,-52.745998,16.288284,26.019779999999997,41.508409,-132.500206,148.590949,103.337323,251.108493,323.009782
72,165.01,-46.407195,113.584652,-49.876345,-17.132085999999997,-90.633863,40.776343,-70.53318399999999,18.769773999999998,-74.60942,-154.862102,-187.446699,-190.714868,-125.58868799999999,-148.96899399999998,-8.480489,-83.396043,-12.94835,-61.08761,-96.162449,-143.676873,-183.47875,-162.299047,77.667695,67.483133,-93.90587099999999,-98.013518,-98.511666,-193.164646,-159.923796,-192.880154,-193.473209,-200.91378400000002,-2.6600900000000003,53.382546,-123.07431399999999,-34.373645,-93.993659,-68.740848,-200.60297,-69.860686,-37.662521999999996,-76.292507,-117.570361,-49.360085,4.003004,-155.886833,-214.03097999999997,-68.843866,-110.225718,-50.659628000000005,-38.290082,-34.304865,-245.10921299999998,69.207557,27.047579,56.931339,384.57088
73,172.875,-5.103542,138.556163,18.953948999999998,46.370478999999996,-16.768785,95.60275,-23.304915,89.88124499999999,-8.905232,-82.883198,-118.643201,-130.41147800000002,-75.611351,-70.088686,26.533658000000003,-15.776608,28.238726,-2.6034450000000002,-26.558784000000003,-63.606922999999995,-121.212754,-103.129958,138.172688,112.761524,-1.2900719999999999,-33.873562,-38.106927,-129.597806,-91.5746,-117.93406,-161.78799899999999,-14.397229000000001,43.635594,121.751527,-67.076788,18.193926,-52.457361,-17.039758,-174.953715,-66.238559,6.208501999999999,-41.352681,-73.07849300000001,-3.049311,58.062608999999995,-112.09948700000001,-147.210878,-37.578423,-70.548784,1.8202029999999998,-2.334524,7.324196000000001,-144.789008,74.541988,81.856578,194.576068,308.725096
74,180.74,-47.577849,67.69516800000001,-49.822449,-7.516749000000001,-84.330224,0.7732220000000001,-70.328664,8.435225,-60.433783,-146.442972,-173.401799,-165.398352,-62.273033999999996,-153.796605,-30.713110999999998,-53.8008,-26.779545000000002,-34.110031,-103.224601,-133.552099,-162.77031100000002,-155.582986,38.014629,36.739684000000004,-31.726358,-100.981673,-84.300134,-160.151942,-134.37581799999998,-171.096233,-180.858846,4.563748,0.630721,74.495416,-68.385705,-45.546945,-87.34785,-63.591908999999994,-212.201292,-77.90610500000001,-44.054058000000005,-90.294275,-92.53386,-44.073505,-6.453773,-162.850305,-154.368689,-74.336279,-109.03926299999999,-63.70973299999999,-49.962238,-27.338571,-151.31138700000002,9.146616,8.43714,167.86502,280.750872
75,193.375,-78.674553,32.539992,-72.245819,-43.920966,-102.96685500000001,-34.507635,-78.028736,-42.664892,-117.308484,-167.230969,-184.61824199999998,-189.951468,-127.01596200000002,-177.17011100000002,-53.183967,-79.37286,-86.82233000000001,-56.882497,-148.24295,-142.029225,-186.908021,-161.995575,18.605007999999998,9.714552000000001,-75.230083,-107.362927,-107.94939,-184.730152,-149.378189,-183.26071299999998,-183.225494,-230.447797,-27.659065999999996,36.516238,-98.655001,-101.947835,-122.022653,-87.226591,-253.293677,-144.956988,-57.203313,-113.897783,-117.4632,-88.62174499999999,-43.67678,-193.980828,-202.824176,-100.190718,-127.72482600000001,-84.222723,-68.519963,-75.367071,-235.239948,-20.08385,-5.430811,-38.992698,127.339502
76,201.26,-8.781789999999999,107.69779299999999,-9.105222,24.983623,-29.503444000000002,58.389942000000005,-48.292722,13.810142,-30.38618,-90.562629,-109.779155,-121.902298,-61.56295600000001,-96.36882800000001,17.868947,-49.197711,-19.365395,7.399566,-98.276854,-73.017092,-119.646928,-92.857336,95.10704100000001,67.964095,-49.849027,-57.328683,-44.437932,-110.025954,-85.793826,-116.376976,-117.426806,-93.524804,48.223216,91.117909,-19.206081,-57.013267000000006,-63.388011999999996,-25.552982999999998,-140.86245300000002,-83.42665600000001,-0.908275,-54.062098,-66.981841,-38.906923,15.128975,-127.831985,-129.429753,-52.260613,-70.264891,-27.741898,-10.781478,-30.372940000000003,-146.394045,34.385213,50.519002,43.027981,144.651291
77,209.14,-67.681024,22.461675,-82.612021,-38.466934,-98.65836800000001,-58.723962,-85.73558299999999,-56.194573,-111.547547,-158.48893600000002,-171.98560700000002,-188.798012,-117.268316,-179.741106,-65.83085200000001,-98.35406,-80.036126,-71.259089,-183.351125,-151.723143,-184.916446,-160.802906,-1.8255400000000002,-22.932044,-89.699049,-133.310787,-112.77225,-162.025469,-149.039301,-191.929608,-175.037697,-254.712762,-32.4425,22.611464,-89.25314300000001,-112.78009899999999,-125.378571,-95.608836,-151.19277,-143.84087,-74.451306,-118.66068899999999,-113.058297,-99.012587,-63.542262,-191.642574,-206.420398,-112.274593,-136.268365,-115.89246899999999,-70.368444,-85.83214,-244.975877,-42.365460999999996,-33.382069,-101.24878199999999,33.532575
78,217.025,-42.440386,42.395745,-22.359424,-16.518342999999998,-65.128022,-14.941918,-43.654701,-9.416294,-61.991257,-126.338664,-139.228236,-159.477951,-84.545389,-126.06641599999999,-32.616085999999996,-62.979915000000005,-47.311158,-41.759890000000006,-136.635529,-113.404882,-154.761417,-120.279928,40.851044,8.948087,-48.455346,-83.55433599999999,-79.163551,-127.392324,-124.619813,-150.765074,-143.37809099999998,-167.422694,-21.068979000000002,64.491726,-40.893413,-69.4951,-94.632588,-58.46894399999999,-108.496265,-116.217355,-31.083410999999998,-81.846912,-80.44391800000001,-64.42919,-17.746536,-126.453771,-157.452609,-91.428107,-88.79884200000001,-66.449474,-33.863728,-56.482918000000005,-181.320618,9.149386,13.440802,-34.614774,1.116416
79,224.91,-22.308382,61.96765799999999,6.454512,13.355335,-24.231614,35.85967,-38.015132,21.69643,-17.396432,-84.513637,-101.770377,-120.877293,-57.092786,-43.275273,1.026006,-31.213357000000002,-4.339503,-20.585809,-85.739599,-70.92710100000001,-115.307709,-81.923956,76.303089,39.828573999999996,-22.542109,-30.635012,-51.817289,-84.409459,-96.502544,-104.113102,-110.302116,-67.662315,-0.43965,94.35443000000001,-14.764647,-31.988193,-72.151691,-29.559749,-88.91171700000001,-111.88706599999999,22.507445999999998,-56.48400899999999,-64.64939100000001,-32.866307,20.026502,-97.082603,-112.00021000000001,-58.63875899999999,-53.32090600000001,-13.659975,1.001117,-29.332012,-116.574846,50.560041,50.355696,35.591573,-70.843691
80,237.545,-29.430257,59.92275,-11.31643,-3.466216,-34.170499,16.05142,-19.456248000000002,-31.485558,-42.965987,-87.227953,-99.721805,-118.519979,-71.34380300000001,-70.266601,-16.414013,-68.083603,-20.052387,-24.023526999999998,-88.808249,-76.361186,-116.816276,-90.174358,60.300920999999995,28.669386,-28.123724,-41.231629,-63.141231999999995,-62.565831,-94.968055,-111.325717,-116.02896000000001,-114.445174,-10.51193,73.20822199999999,-66.097522,-43.651751000000004,-81.403549,-45.555308000000004,-143.535659,-121.652533,2.651813,-47.491339,-58.847778000000005,-60.497356999999994,-9.947192,-96.482252,-115.77503200000001,-70.342331,-58.158359999999995,-23.132266,-29.674746999999996,-56.406845999999994,-129.576831,48.799246999999994,25.531129999999997,-49.826659,-127.343231
81,245.425,-28.689809000000004,32.842645000000005,-2.6143810000000003,-2.358508,-25.995373,0.480375,-21.567264,-21.954556,-34.797174,-76.042575,-95.70964599999999,-115.229155,-72.935979,-76.505397,-11.498659,-48.126937,-20.216903,-10.691336,-96.483245,-71.667736,-114.079099,-92.63875,64.48040999999999,35.610518,-25.395287,-30.749270000000003,-49.78646,-38.387145000000004,-97.175011,-102.177625,-119.357868,-61.472305000000006,-13.434353,87.06172,-66.720812,-47.077719,-80.889325,-40.81323,-145.619121,-111.23708400000001,-3.5132339999999997,-56.326083,-55.815884999999994,-47.82837,-0.8779549999999999,-108.078258,-98.332662,-50.545544,-53.665482,0.22724699999999998,-20.098924,-44.881964,-101.16452199999999,68.832346,33.865983,-23.658768,-215.66389500000002
82,253.31,-67.979179,-19.683409,-52.483982999999995,-39.294565999999996,-59.252609,-58.082946,-56.448829,-30.689117,-72.81703,-111.55285400000001,-126.507407,-136.354737,-103.47619300000001,-123.99279299999999,-41.572518,-78.584337,-51.347849,-52.07991,-135.18661799999998,-117.09141299999999,-139.771497,-108.093078,10.576525,-32.228787,-36.404571999999995,-76.49612900000001,-84.55924,-64.40787900000001,-125.845674,-136.720854,-124.71489199999999,-174.77318,-40.493458000000004,47.752067,-137.878616,-77.721775,-112.16893300000001,-70.74131700000001,-176.641698,-122.71665700000001,-33.126804,-86.824344,-80.855313,-78.117942,-55.63345,-132.386583,-135.462343,-72.801763,-92.36529200000001,-41.398053999999995,-89.200425,-70.474283,-164.039298,9.814960000000001,-22.854719,-154.61676,-273.620503
83,261.195,-78.384644,-30.484503999999998,-91.149189,-50.427664,-67.963922,-68.516238,-92.272879,-50.331346,-84.540006,-115.02489299999999,-124.81146000000001,-133.623377,-103.824624,-123.87545800000001,-15.915545999999999,-96.30455500000001,-70.43912900000001,-39.370806,-127.533621,-125.0146,-135.527707,-106.666169,-2.937264,-10.928382000000001,-62.41859300000001,-90.660909,-76.099565,-51.574494,-116.3704,-139.328747,-95.90569599999999,-177.804872,-44.271425,56.819607999999995,-120.73453,-53.27214,-96.651616,-55.203384,-139.30071,-92.233535,-25.239578,-66.555619,-71.3127,-96.206877,-60.246221999999996,-119.019654,-113.52101,-50.122633,-81.016626,-19.694785999999997,-78.423721,-89.433439,-148.22662,21.772510999999998,-50.105132,-159.24825,-248.863161
84,269.075,-44.474494,-19.629458,-36.568577000000005,-23.882960999999998,-38.02259,-49.401621999999996,-24.481901999999998,-13.276456,-58.61186800000001,-73.45223299999999,-86.88409399999999,-96.331896,-92.523448,-97.667169,-30.821432,-39.021656,-24.569851,-19.822804,-75.555437,-83.285036,-99.690201,-81.497377,0.682474,4.664658,-21.205792000000002,-42.444829,-37.550059000000005,-43.839808000000005,-77.61862099999999,-104.425726,-82.61109599999999,-174.443858,-23.689273999999997,73.021012,-101.175286,-12.413049,-77.794831,-27.477773,-109.67848300000001,-98.535543,-15.386,-52.325742,-47.632409,-69.724587,-31.583496000000004,-102.827089,-85.744251,-32.931107,-54.507048,20.281589,-67.730201,-63.88046,-119.090703,22.588828,-18.710808,-141.549221,-383.162384
85,281.825,22.727142,47.545117,33.55298,37.833045,42.093717,38.257087,40.470017,35.236529,24.224773000000003,4.407629,-13.515766000000001,-39.360025,-19.468825,128.295616,67.459698,46.004315000000005,50.129843,35.532454,8.804211,-15.396204999999998,-42.571333,-6.3116129999999995,82.089322,64.82825,45.941492,32.56707,21.754282999999997,6.77101,-21.67474,-37.579941,-4.046130000000001,70.773981,91.341504,148.886415,29.128556,74.27198800000001,-21.786035000000002,35.080241,-46.207376000000004,-50.584763,30.361203999999997,20.448354000000002,23.425394,22.755167999999998,55.899498,-55.933099,-7.966695,33.318296000000004,11.827949,96.33245,63.258123,23.482101999999998,2.0382740000000004,91.869166,40.78808,18.588604,-334.539184
86,289.71,-18.553079999999998,-0.8356309999999999,-40.033970000000004,6.139417,-5.049905,-20.768217,-23.938661,-12.154333,-36.036724,-47.41356,-57.076226,-78.198368,-26.504004,9.515997,15.182913000000001,-9.8255,-3.738585,0.869693,-55.219347,-67.963225,-76.505099,-36.764082,26.187870999999998,28.396271000000002,2.673493,-39.498535,-13.572335,-24.111672,-50.52626,-71.96244,-17.650197,92.279262,55.749517000000004,77.311131,-4.714092,33.716145000000004,-56.630904,2.577329,-45.192877,-58.097954,6.525425,6.697261999999999,-15.840765,-17.715687,-5.704781,-79.41833000000001,-17.572748999999998,10.333713000000001,-16.660054000000002,42.815546000000005,41.667285,-12.938217,-9.860849,34.388359,-14.976098,-20.003704,-275.627179
87,297.58,22.107507000000002,18.348091,32.17514,50.170924,61.993462,24.419366,25.653126999999998,26.217707,28.274774,20.027398,2.739672,-46.943629,12.063253999999999,76.44237,50.762737,28.838896000000002,12.668013,39.288507,16.034047,-11.537432,-53.115386,8.070622,73.167274,42.265104,31.601714,20.005579,27.626313,8.304039,-16.157897,-35.698492,2.722526,-64.84719,38.609832,108.31783899999999,-8.137117,48.003370000000004,-25.08108,27.955344,-55.509907,-45.964040000000004,30.442196000000003,22.789069,20.091445,-3.8548,28.245678,-43.765754,-20.139423999999998,33.888659000000004,14.876904999999999,66.832311,4.2902059999999995,-3.02681,-39.956084999999995,73.18987,41.470239,-145.257713,-309.335031
88,305.48,42.652162,32.616111,76.81450500000001,59.240591,68.896416,68.31345400000001,59.05794399999999,37.775851,49.633196000000005,44.209439,27.756797,-20.213782000000002,51.887433,97.096225,61.708963,44.678484000000005,30.232409999999998,45.435826,59.135771999999996,29.813504,-27.34403,28.559939,71.65812,53.822124,42.898866,47.525824,41.096418,16.796058,1.004268,-0.09051000000000001,9.116608,1.8823020000000001,69.402939,130.671468,21.980338,40.562032,-14.604807999999998,37.061996,-52.808038,-36.85857,41.050146000000005,30.032853000000003,35.253652,29.111333000000002,66.527393,-18.524039000000002,-0.220689,37.388571,29.13253,61.85824100000001,39.863807,22.540932,0.079584,107.93001399999999,70.913945,-86.56029699999999,-328.367773
89,313.345,-4.942506,-11.363686999999999,-8.294804,17.149234,11.512322,3.5782589999999996,-36.697437,-9.875936,-17.94085,-16.594903,-24.664025,-73.886218,-27.238432,-41.866547,6.352683,-24.578343,-35.6524,-5.842911,-17.513842,-44.186038,-82.175947,-20.522501000000002,-21.313918,4.624869,-20.095494,-34.51108,-22.687931,-27.942363,-49.087293,-66.542682,-31.118425,-100.7218,-1.6739419999999998,50.623255,-46.764962,-26.705432000000002,-73.676936,-34.258386,-103.181685,-65.613691,-22.961472,-17.350271,-18.837634,-43.022339,-21.997081,-75.915814,-71.416962,-44.348739,-28.048592,-13.431563,-41.855132,-44.218761,-90.926197,24.60115,-37.006469,-208.218159,-247.851632
90,328.795,-32.562796,-47.394603000000004,4.39533,-4.486589,7.885794000000001,-2.201568,27.879626000000002,-23.196267000000002,-29.658675,-7.797489,-20.700634,-42.295419,-22.427771,16.30474,-9.646352,17.739908,-14.579773999999999,-5.655707,-19.969973,-29.105690999999997,-46.133727,-24.683673000000002,-38.474731,-13.749542000000002,-3.3644269999999996,-8.372096,-13.529313,6.230842,-43.230601,-47.117018,-22.145467,-46.028209999999994,-17.687416,71.8844,1.6495330000000001,-1.016357,-53.74580600000001,-30.238982,-56.674389,-76.125338,-33.128653,-26.616169,-9.409456,-18.426494,-18.846394,-37.368466999999995,-42.380676,-32.767515,-28.5524,-11.378936,-30.69639,-21.334304,-41.777373,-6.6576,-22.911784,-191.442776,-328.760756
91,339.48,-16.745592000000002,-41.277947,-27.537789,8.420860000000001,31.857172,18.744255,12.553633999999999,-11.873012,-2.755583,21.32108,15.846498,4.444051,36.020912,76.001734,10.227458,34.776815,20.710493,20.223503,4.254718,6.9434320000000005,3.197337,12.616576,-0.8898149999999999,3.9147870000000005,14.030655,24.78579,17.078386,70.63682800000001,-3.831067,-2.3221950000000002,17.359979,95.511534,11.014334,91.226187,20.147914,32.412107,-14.122841000000001,-3.373683,-47.164314000000005,-17.181548,2.51933,11.702475999999999,20.866528,16.490524,14.695642999999999,4.352803,25.90192,17.190342,12.445772,19.478113,28.954990999999996,12.901536,45.870121000000005,42.903102000000004,6.670903,-93.921229,-258.768509
92,350.18,-16.897858,-68.33268199999999,-21.562441,-4.898494,26.342740999999997,-9.595614,32.344746,-39.68762,-19.193991,15.176282999999998,15.704899,15.716797,19.9812,36.020331,21.629369,35.888217,-3.245864,1.197873,-17.343151000000002,10.895325,12.541947,16.766609,-28.645615999999997,2.476648,45.282838,29.662484000000003,15.345654000000001,69.083543,10.487264,11.520477,38.554372,128.072928,31.078471,98.55098199999999,52.120492999999996,27.265990000000002,-6.421035,7.156941000000001,-7.430262,-17.665726,12.044709,25.904051000000003,45.318711,32.59383,15.985413000000001,-6.03587,53.808938,29.376883000000003,33.751131,39.347535,37.585928,30.055093,78.206663,41.265194,8.238101,-61.883577,-387.464053
93,360.865,6.994633,-34.422754,-2.555598,16.722799,58.82089200000001,12.820528,34.838423999999996,-8.439480999999999,13.508227,53.154346,51.548334000000004,51.727135,31.308409,52.840109,32.18708,32.596706,4.061558,25.368631,0.7451479999999999,36.025372,42.312583000000004,47.752140000000004,-9.311354,-12.789782,35.488504,28.37872,21.055017000000003,91.485926,44.565275,41.129171,57.489920999999995,116.308535,-18.548965,75.665705,29.902303000000003,-8.452064,2.647987,1.3320370000000001,31.007462,-25.773251000000002,7.910802,22.051927,30.802443,-11.536660000000001,-18.783654000000002,-19.61214,46.674076,28.07937,24.701654,-2.9945,17.144542,-14.876460999999999,63.660835999999996,23.817436999999998,-20.469153,-88.61966,-450.856674
94,371.565,39.152426,-32.256023,45.052585,45.862871999999996,88.231545,34.860699,31.871963,34.009546,50.953536,86.38528199999999,84.1381,90.66964200000001,56.029192,71.684164,51.897046,59.37787900000001,31.612965999999997,40.129982,53.346861,71.58681999999999,83.566148,72.201729,0.275494,14.343625,57.175115000000005,66.35412600000001,59.101193,141.015229,87.35433499999999,71.761116,86.002472,165.313468,29.170984999999998,122.10986299999999,82.076921,7.217786,42.964832,38.901303999999996,84.17206,22.378277999999998,37.545464,66.881819,78.209548,51.318469,20.974307,20.800843,102.29160999999999,48.777858,69.292473,52.43395,66.285353,47.847778000000005,121.943424,53.048512,23.161392000000003,-36.510456,-293.1447
95,386.98,26.861358000000003,-42.068771999999996,28.734757000000002,19.130589,89.659047,45.737421000000005,62.590288,-6.284523,51.951787,87.50631800000001,87.853262,98.881814,73.524128,74.894501,66.364238,65.73739499999999,29.957413,19.248316,64.801002,78.663187,95.536099,75.27351800000001,9.201866,2.671395,59.603348,76.187147,55.401618000000006,139.684677,87.158373,79.143879,88.20267,124.166308,62.450708999999996,185.795953,102.363901,19.525385999999997,56.218106000000006,34.528372999999995,52.001490999999994,21.955,24.756498999999998,61.969021999999995,78.61733199999999,52.498284999999996,27.823818,45.119315,110.661221,53.144551,85.847646,74.885598,70.047487,45.891307,129.82411299999998,41.947007,39.709410999999996,-55.304252000000005,-291.072661
96,397.715,-88.923237,-193.79748600000002,-97.726614,-114.43274699999999,-66.885743,-119.683796,-32.158729,-124.38611599999999,-74.695127,-43.245917,-33.254121999999995,-22.754994,-119.315288,-106.365141,-94.797676,-39.460390999999994,-93.727436,-92.32146999999999,-65.43200300000001,-57.95143,-25.502098,-42.641503,-154.82354099999998,-148.50847199999998,-36.78686,-46.976878,-46.105401,37.184031,-37.509582,-40.370164,-21.108013,-130.91863500000002,-132.026721,71.81302099999999,-52.254219,-66.281921,-55.097919,-90.344279,-66.688117,-83.620065,-98.068168,-53.407512,-13.139345,-66.17424399999999,-116.492768,-61.470778,-28.702795000000002,-74.497028,-32.937622,-74.95950400000001,-100.984912,-66.748349,-39.0023,-97.642618,-114.349352,-258.818985,-318.43535499999996
97,408.415,-73.683335,-156.743075,-99.877492,-109.102942,-75.539527,-122.00616799999999,-56.509854000000004,-142.836566,-56.426209,-27.682276,-4.127753,6.010027,-112.447301,-67.783929,-68.242082,-65.216727,-142.497457,-77.63086700000001,-46.311999,-42.279483,6.053756,-17.759182,-168.517549,-138.404009,-73.756429,-57.16161700000001,-24.140884,66.295624,-13.359862,1.6968290000000001,8.794442,-123.35956100000001,-121.051359,64.176291,-40.98726,-57.173376,-38.158442,-75.358071,-94.611944,-26.969386,-86.59074,-45.300843,-17.398255,-78.040883,-132.4685,-32.794519,-6.113305,-51.722468,-20.222333,-87.764562,-113.59747,-79.343242,-17.104912,-124.333178,-146.986858,-254.854617,-312.87957400000005
98,419.095,-61.8005,-139.08521000000002,-47.397663,-80.222101,-51.851310999999995,-99.378072,-30.423507,-100.215947,-33.068388,6.686508,26.431665999999996,36.458042999999996,-104.600319,-19.022354,-62.90818,-41.028954,-108.188879,-37.386233000000004,-31.438288,-14.186297,34.446956,11.029618,-166.403284,-122.33488799999999,-30.187145,-23.959691,-3.434395,66.439414,2.082164,34.043193,27.569196999999996,-92.363996,-127.325029,77.927829,-20.43915,-59.732153000000004,-10.20623,-54.760063,-56.088511,-5.346878,-58.900932,-17.933792,13.426794000000001,-48.443562,-89.851618,13.759244,33.275732,-17.344616000000002,13.670468,-63.860764,-81.825976,-54.874762,26.845252000000002,-97.776881,-111.286882,-230.629141,-402.815546
99,429.8,-51.077315000000006,-125.437301,-40.239998,-67.98820500000001,-24.643179999999997,-73.499853,5.601380000000001,-101.662894,-33.313676,27.861094,64.83082399999999,85.01342,-28.054787,-6.913378,-28.730102000000002,-20.065765,-61.563168000000005,-24.119167,-10.31531,28.160815000000003,86.651937,64.871874,-143.27551499999998,-110.671256,-23.061822,-6.2808,20.846656,111.753134,56.701243999999996,93.316464,82.720558,-28.695224,-102.530937,93.930592,12.222397,-14.216567000000001,18.055726999999997,-13.247625,6.209693,35.300975,-35.702776,13.000194,33.010940000000005,-37.398488,-74.38246,60.50259200000001,82.313148,15.309135999999999,47.584965999999994,-56.042418000000005,-63.35935799999999,-44.958387,78.182191,-104.173422,-106.189247,-219.512646,-302.965934
100,445.18,-110.47198,-214.862348,-147.434338,-138.46053700000002,-83.361899,-151.60832299999998,-83.478879,-153.614431,-125.628123,-20.541179,13.651392999999999,23.337796,-114.360335,11.068363,-96.638101,-82.885177,-121.52225200000001,-102.858034,-89.479536,-43.229292,24.046877,-10.946522,-240.11344,-129.256148,-76.765162,-75.114947,-57.684084999999996,39.25832,-12.915036,23.923832,28.203892,-120.00242,-167.07495600000001,5.254196,-21.419185,-93.160799,-56.503758999999995,-88.9703,-46.665939,-11.420601,-98.545411,-31.171033,-14.471360999999998,-95.942066,-134.710511,11.234100999999999,33.188156,-42.459996999999994,-3.084146,-90.138076,-110.267026,-103.63033399999999,21.998929999999998,-132.698795,-188.287444,-308.771727,-193.635277
101,455.9,-105.070016,-204.84356499999998,-123.488432,-125.465108,-42.321344,-143.687678,-61.627421,-180.50946299999998,-102.397245,4.965539,44.566437,57.555358,-80.417763,50.087444,-56.005246,-64.136211,-116.66616499999999,-52.66269499999999,-49.165401,-4.231084,57.562639000000004,29.59395,-184.72449699999999,-113.214646,-48.032269,-56.94271,-9.004359,67.185441,22.967253,68.676971,64.257898,-90.551789,-143.206545,-8.687366,-22.132066000000002,-43.335158,-8.004921000000001,-52.105198,-14.845619000000001,32.049973,-73.123746,-9.375828,12.076133,-88.541524,-119.220354,51.66193,73.95049399999999,-6.6854759999999995,20.155266,-73.629521,-83.18173,-101.761394,68.336543,-117.774864,-165.131751,-272.270046,-182.998129
102,466.6,-115.85179299999999,-230.06958500000002,-148.146492,-148.64394099999998,-54.541171,-172.541032,-77.673214,-187.970124,-94.094465,1.0267,39.848121,41.058594,-92.431362,36.522641,-96.108766,-72.330969,-118.460702,-100.178562,-48.962362,-8.490158000000001,40.749351000000004,13.590997,-185.90340700000002,-142.612447,-54.16676,-69.37565500000001,-28.644551,60.243778000000006,13.822681,56.427061,50.182522,-107.532982,-139.07916200000003,-42.61587,-21.180815,-54.567989000000004,-21.922501,-66.364405,-19.521748000000002,7.3257520000000005,-100.912181,-30.014688,-6.377848999999999,-107.357712,-139.595484,42.45661,58.628333,-29.188712,0.782496,-102.276273,-115.15942199999999,-119.506401,57.593422,-155.811933,-179.526837,-288.655606,-104.43446800000001
103,477.28,-101.38490300000001,-238.278234,-135.496019,-146.024551,-37.248466,-159.491919,-70.17281700000001,-189.31014,-94.987398,14.494603,52.902556999999995,59.813103000000005,-95.026089,35.811751,-80.16942,-74.900035,-109.31872800000001,-71.203857,-45.948968,0.509864,59.102903000000005,28.637462,-193.45984099999998,-154.017821,-32.925849,-53.748211,-19.72586,70.674886,26.303337,61.442677,69.250458,-80.40993,-128.602133,-56.487287,-26.016264000000003,-55.181082999999994,-11.988125,-53.198519999999995,-4.926325,11.408760000000001,-100.174216,-31.148938,11.373951,-105.194828,-142.973037,67.328502,80.88510699999999,-47.590379,2.436834,-122.738323,-112.650645,-115.74752600000001,79.04704699999999,-187.386109,-175.111627,-306.158569,-108.202976
104,487.965,-32.867009,-182.874354,-48.598015000000004,-98.318995,12.015635000000001,-114.80248799999998,3.4601029999999997,-132.05524,-35.60675,77.62635300000001,107.411093,115.48455700000001,-45.711378,44.654924,-8.550180000000001,-12.848592,-47.709471,-27.009234000000003,18.913029,55.78261,108.76443300000001,77.55627,-135.996623,-93.125703,-1.738158,3.7092160000000005,28.242659000000003,112.72458200000001,72.148459,111.26686299999999,118.61500500000001,-20.694021,-78.890795,-28.516797999999998,61.636279,-30.891788000000002,22.101872,-6.984191,35.814545,32.541258,-49.494502000000004,25.825687,54.845876000000004,-73.308065,-105.43723100000001,113.891029,139.579449,-21.32078,61.23644,-48.156428000000005,-48.271962,-88.391738,143.216668,-150.268242,-105.759092,-230.38034,-51.663706
105,500.615,-96.019428,-250.010512,-131.172476,-145.492846,-46.809471,-184.40911200000002,-79.51559499999999,-183.418857,-96.100318,25.564338,66.870019,65.585654,-63.112202,50.557226,-98.750248,-84.248684,-91.680491,-88.798705,-29.785908000000003,0.785505,61.317843999999994,34.548171999999994,-195.06956,-202.796593,-59.543738,-82.164751,-35.482557,72.609952,28.69221,58.652384,75.84676800000001,99.580398,-129.868577,-147.492717,26.794898999999997,-50.054491999999996,-29.522513,-55.71615,21.589817,-22.311957999999997,-122.316477,-44.412701,-19.413247,-137.07645,-189.431726,69.779972,104.337907,-75.658078,-16.918797,-166.423976,-71.234921,-147.713798,141.637082,-272.670225,-184.711681,-224.00238399999998,-105.08221100000002
106,508.485,-109.289676,-278.068915,-127.354914,-167.197575,-75.2981,-199.641638,-96.806088,-198.409874,-133.038478,-3.682947,35.967877,38.343375,-104.844706,-3.032291,-120.247924,-112.89791299999999,-123.326858,-134.801155,-71.785663,-32.405229999999996,33.546838,-5.747873,-276.095968,-218.90189900000001,-79.234254,-99.657899,-62.22171899999999,38.943876,3.489793,21.911120999999998,43.582171,-131.435113,-183.98808200000002,-202.468387,-50.175919,-81.41697099999999,-62.151469999999996,-94.191861,-25.911006,-66.15656700000001,-164.330953,-75.21582,-33.766101,-151.230409,-209.974668,41.502561,53.562037,-97.815423,-33.756889,-185.97977,-167.43421999999998,-161.623022,53.646135,-301.797665,-209.433101,-337.1313,-138.68623200000002
107,516.35,-77.496734,-229.093661,-82.958616,-140.518126,-5.46316,-119.866551,-49.399613,-189.437613,-71.30448,62.7869,99.968299,105.14224399999999,-42.129856,94.974427,-74.96390699999999,-72.167889,-77.153592,-77.855091,35.215782,50.798305,103.76531,62.207848999999996,-185.81144799999998,-169.045633,-45.387698,-29.879146000000002,-22.329919,85.938856,58.648573,104.389252,92.49290400000001,26.501189,-121.348805,-161.675687,44.573127,-23.264784,-21.920935,-37.375514,26.481361,-33.42122,-104.08841899999999,-25.371434,3.325449,-92.231026,-132.388228,92.511799,122.12186499999999,-39.673006,17.9697,-103.714233,-89.28009499999999,-110.14308700000001,151.322975,-231.186639,-133.129504,-211.60472000000001,-105.288316
108,524.215,-130.904529,-305.188087,-136.26346999999998,-172.017271,-74.528214,-209.84200299999998,-123.60491200000001,-210.87459500000003,-127.849079,2.997514,45.545349,47.341434,-72.63915,-9.262802,-121.40430400000001,-121.141365,-126.158257,-129.737367,-35.276913,-26.444331,45.183363,-0.970424,-280.254043,-241.746731,-102.077793,-99.53372399999999,-76.170006,35.30362,-0.418353,41.206046,46.129683,58.294844,-144.994981,-255.884599,-19.743492,-91.855201,-79.156121,-103.394971,-21.794435,-79.724118,-174.835786,-80.24369200000001,-53.24099399999999,-155.326068,-207.033177,37.668706,88.219598,-110.357743,-47.310992999999996,-202.23279399999998,-122.179119,-169.856778,130.322545,-300.251317,-222.938427,-247.678402,-147.945643
109,532.085,-144.090119,-298.784442,-149.567934,-173.627477,-78.784131,-226.424583,-148.503148,-221.59908199999998,-126.31385700000001,7.516339,54.422954000000004,55.953989,-77.225052,-40.784496000000004,-126.053799,-130.346499,-152.63378,-147.080386,-38.745517,-20.732661,51.450795,3.498474,-285.929684,-253.001592,-127.91768400000001,-109.111174,-80.476656,21.108698,5.858561,49.087109000000005,47.14693,-151.128495,-178.081943,-301.804334,-50.943669,-94.897251,-78.11109499999999,-106.66230800000001,-30.12329,-88.394086,-185.270615,-76.587391,-54.201817000000005,-162.226655,-221.14639,17.770648,50.493759999999995,-123.033203,-48.70167,-197.935292,-183.96220300000002,-176.907451,53.94661,-293.79918399999997,-236.576729,-377.17828,-85.473102
110,544.715,-231.07513799999998,-372.427813,-228.267677,-260.03232,-144.523951,-290.631006,-168.473771,-306.302449,-189.062993,-61.310328000000005,-5.947961,5.475413,-86.770199,-152.054352,-169.404304,-154.331825,-189.31465500000002,-224.01604700000001,-110.89051200000002,-79.352548,4.523258,-49.91366,-333.33272200000005,-313.752252,-159.202464,-167.404672,-134.740301,-15.629379,-44.968946,-5.02306,4.802435,0.9514299999999999,-219.811472,-406.71671499999997,-51.287997999999995,-171.329472,-122.982801,-140.539003,-42.930977,-147.770018,-246.35628300000002,-128.944025,-91.103488,-199.248841,-272.378642,-31.475887,43.261303000000005,-179.52649,-103.090075,-223.43781600000003,-172.66294,-212.26692599999998,86.233938,-363.486134,-293.318239,-331.218593,-140.950878
111,552.585,-209.746429,-363.23197999999996,-214.413144,-237.326654,-113.511629,-275.761414,-170.089852,-295.92652000000004,-166.738873,-37.220406,21.450746,23.558626999999998,-89.832666,-123.22878700000001,-171.430554,-180.782268,-234.498683,-203.283108,-91.764445,-60.539533999999996,15.8692,-12.696457,-283.907464,-328.28168999999997,-181.264586,-169.750832,-121.009631,-9.919003,-29.937341999999997,9.092359,23.861888,-162.662477,-242.288728,-465.29580599999997,-108.655301,-177.425136,-122.16762800000001,-139.547271,-33.707549,-157.151351,-239.34611800000002,-119.88476200000001,-93.199958,-212.32924100000002,-293.275065,-52.038897999999996,11.96584,-191.183095,-97.659449,-216.02490899999998,-233.12911200000002,-225.82915899999998,19.500711,-374.724183,-319.087678,-442.357509,-27.837056
112,560.45,-176.650598,-373.493796,-181.221601,-221.79671800000003,-102.93463299999999,-265.819517,-131.24438999999998,-250.709268,-130.56859599999999,-14.146139000000002,35.702465000000004,39.627132,-73.45389399999999,-151.710667,-165.893893,-129.217999,-179.402264,-196.077855,-88.298692,-48.734086,28.590777000000003,-15.592569000000001,-347.364579,-287.171496,-143.922079,-114.35833999999998,-106.149369,8.468408,-19.749406,22.378799,36.252328000000006,-110.91678600000002,-201.364224,-455.904947,-70.630863,-182.359959,-100.59174,-122.947144,-17.968879,-143.327312,-217.913227,-93.94098000000001,-70.904873,-190.49918200000002,-259.055414,-26.683056,46.8845,-171.381226,-67.64530500000001,-183.626014,-198.724126,-205.660733,64.684853,-342.423397,-300.76336200000003,-332.587908,-32.052214
113,568.32,-153.566876,-384.272861,-140.208429,-205.762526,-81.862461,-256.454459,-136.417343,-232.219959,-90.00229200000001,8.688656,63.890664,79.20823299999999,-10.108001,-119.41216200000001,-176.702067,-134.562982,-168.268597,-174.813917,-56.410072,-20.038741,68.19275999999999,24.444264999999998,-335.015155,-307.231019,-154.820348,-109.194975,-87.857545,20.425197,11.772292,59.112352,69.710451,26.205678,-189.494085,-494.021271,-45.721944,-151.129389,-61.459015,-85.725347,-3.950496,-123.215398,-198.97761100000002,-77.750059,-64.802563,-166.38158700000002,-240.053044,18.8725,104.917675,-131.529333,-41.754021,-160.918249,-141.201684,-185.25904,141.929804,-314.894542,-287.67221800000004,-226.707174,42.252333
114,576.2,-157.909131,-397.207635,-174.579828,-218.85608599999998,-76.359575,-264.243004,-119.38668799999999,-229.688717,-87.52305,18.403142000000003,75.292079,87.824668,-19.827897,-154.490173,-162.961848,-127.533375,-176.23164599999998,-171.43094,-36.75043,-4.01436,73.055534,27.752339000000003,-320.709827,-308.771146,-146.06131200000002,-95.69355999999999,-82.00758499999999,25.547957,22.776571,71.335888,67.998988,-3.37404,-216.156976,-581.4738769999999,-54.664159999999995,-152.479802,-61.404895999999994,-84.958513,-26.057748999999998,-131.173774,-203.975415,-92.704229,-66.151269,-168.079588,-244.733521,15.168934,99.275552,-145.517598,-53.850927,-162.885175,-171.20766799999998,-188.784603,135.554923,-319.634562,-295.08121,-251.31103199999998,82.222346
115,591.65,-129.05696899999998,-377.12059700000003,-152.619234,-199.78028700000002,-42.679806,-232.578665,-88.789563,-225.976857,-53.772764,51.618808,109.74490800000001,115.63795900000001,-10.239419999999999,-44.261540999999994,-93.58578299999999,-90.912207,-156.557864,-136.63244,8.664858,33.705103,101.78469100000001,52.182823,-310.284646,-259.93801,-118.29509499999999,-74.746148,-66.84342600000001,50.476048999999996,61.317124,108.18872900000001,101.678007,65.799728,-159.326008,-634.744807,8.04164,-142.5492,-34.815646,-45.440594,11.372141000000001,-72.493752,-166.425043,-40.966162,-25.557499,-124.78323700000001,-203.62018700000002,40.631527,155.302438,-108.124733,-4.517691,-87.705118,-100.11763,-149.685606,205.64236200000002,-245.1141,-269.494183,-144.960969,314.38177
116,602.335,-143.132518,-398.150154,-174.420307,-202.20433799999998,-102.162504,-272.316867,-131.858087,-256.923203,-59.806612,31.900816,97.592813,119.248077,20.387408999999998,-87.926897,-125.018111,-122.24331799999999,-174.484978,-158.370081,-14.321016,13.544868,103.51630899999999,45.135923999999996,-330.93345899999997,-272.74985,-159.782298,-107.120949,-84.241867,45.138109,57.40353,100.253208,105.928789,83.99683900000001,-163.551325,-694.839472,-11.924047,-140.38771200000002,-30.930999,-49.023140999999995,17.641322,-67.043678,-165.892201,-43.594834000000006,-25.290701000000002,-154.454042,-264.18684,43.09665,177.254945,-114.991514,-3.235939,-124.381156,-109.231996,-173.272255,223.384893,-269.518995,-301.671358,-158.055348,491.64130199999994
117,613.02,-161.411796,-422.279984,-171.008092,-220.318331,-96.45666999999999,-297.815829,-159.168992,-247.283934,-63.128088,37.84578,99.022873,96.009051,-34.077806,-131.700861,-160.378414,-135.650149,-180.004232,-156.10335600000002,-22.263679,1.275764,83.169063,35.064678,-367.805346,-298.110351,-128.281408,-109.83368899999999,-88.23504799999999,19.678657,35.205365,84.717291,90.750499,-93.687175,-224.993879,-725.210827,-51.115442,-166.077232,-44.605195,-72.565404,12.709344999999999,-93.634833,-200.403302,-73.04272900000001,-49.022351,-182.862321,-278.18827999999996,21.887459,123.11496299999999,-149.55338600000002,-23.724135,-115.91300700000001,-190.672579,-203.773853,144.29608000000002,-295.69482200000004,-332.062956,-237.841286,611.27112
118,623.705,-182.60261,-417.322784,-174.20726200000001,-222.15243999999998,-68.18956,-266.251784,-128.179096,-247.044336,-52.999302,53.773413,117.219753,109.24309199999999,-11.457872,-125.17709099999999,-155.242144,-112.492494,-177.682987,-153.956302,7.489333,23.926344,98.956393,42.054103000000005,-354.381839,-256.666475,-126.39832,-83.658478,-73.794925,42.504585999999996,47.774916999999995,100.951847,100.08802800000001,-42.389712,-211.66220299999998,-718.269641,-36.565953,-157.245352,-27.127383000000002,-59.785424,39.119039,-66.61983599999999,-196.92342,-66.193623,-33.77756,-161.092507,-234.762478,51.235952000000005,152.523747,-96.82985,-6.121828,-113.71668500000001,-177.493067,-190.170508,193.155728,-265.175495,-301.308385,-84.722272,688.288106
119,634.385,-203.216895,-485.122843,-188.58445600000002,-253.46981,-96.558537,-314.42287000000005,-160.534786,-289.83110800000003,-93.019152,28.077306,98.409252,92.564647,-27.445967,-130.32558999999998,-204.881404,-152.275909,-212.129614,-184.857353,-21.936255,-3.175966,81.929137,26.158511999999998,-382.497383,-315.371465,-212.029312,-124.134123,-104.65049499999999,20.710722,26.300176,91.984213,74.036163,-61.786825,-252.59727999999998,-786.261515,-79.410359,-221.38897400000002,-51.34684,-101.78932900000001,23.859576,-92.61153399999999,-239.43480099999996,-103.748076,-91.033363,-203.536902,-278.081947,29.057208000000003,133.746468,-150.30033899999998,-39.428094,-122.80126899999999,-212.006875,-233.118547,175.76611,-343.29141,-333.685703,13.574357999999998,800.713584
120,28.345,192.822839,379.707197,195.93072,248.396132,64.557322,302.30321499999997,188.374968,271.51908,63.642568999999995,2.08075,-87.403242,2.399062,22.249191,207.029846,220.44450600000002,150.275567,212.562112,173.505201,101.78487,25.054433,-5.431609,-15.546719,271.997096,244.80593199999998,128.549297,213.520346,178.607885,-107.66903700000002,-62.510226,0.5919810000000001,-76.470218,49.434778,235.614263,302.924507,-43.166013,48.078524,38.057553999999996,120.98111100000001,-105.533978,25.506173999999998,102.888085,67.955691,60.651976,134.905881,173.672589,-155.355208,-109.814475,132.78049099999998,33.218754,47.946023,206.847947,156.500342,-117.396528,299.787242,217.664714,-211.69012200000003,147.443278
121,39.045,184.484845,346.146871,180.244775,238.12409900000003,40.670596,281.08417799999995,181.416655,252.94471000000001,57.744114,-18.236347,-92.23395699999999,-9.381451,8.819444,180.629445,231.237833,158.10406,185.479677,166.44556,82.215038,5.707994,-17.500538,-45.293414,240.251496,235.491656,123.668645,173.02080700000002,158.33318,-111.13001899999999,-73.30963100000001,-14.670329,-95.248935,51.94465,248.797394,266.8032,10.569666,60.035945999999996,24.773602,72.90052800000001,-106.15849399999999,6.279705,87.807909,53.605836,45.679759000000004,109.05250600000001,143.919958,-170.008413,-114.176791,116.414992,11.606116,9.347994,179.02301599999998,131.44699599999998,-122.06296299999998,229.06065,196.353351,-220.35953700000002,154.333598
122,49.745,166.527365,313.170041,152.91220900000002,223.420931,30.978531,239.39457400000003,171.156846,232.289242,47.339141,-26.819782,-95.661025,-4.030697,-0.969884,170.68636899999998,166.810792,145.68530900000002,169.704421,186.19391000000002,47.007514,2.08086,-10.456591,-22.074824,214.88926800000002,206.57888300000002,113.661126,170.704942,163.47608200000002,-74.77770600000001,-59.51739499999999,-14.533192000000001,-69.965057,95.174018,252.96865099999997,271.911327,-16.370314,86.625035,39.996333,63.407394,-93.715802,27.55475,91.925227,62.444901,59.009652,106.983116,134.947714,-158.758037,-89.550282,127.368478,29.254332,77.11632900000001,201.926627,133.24388100000002,-96.42724,212.765651,188.76951599999998,-168.288901,85.855761
123,60.43,170.221096,295.159758,163.96132,227.126381,41.682932,251.030315,172.450149,218.685133,50.972194,-8.447975,-77.25466899999999,-8.40583,17.340801000000003,185.894381,167.257935,136.080972,149.741736,174.560098,50.029396000000006,15.530284,-15.671842999999999,-28.028995000000002,229.740395,200.124236,105.907904,171.861285,152.042773,-74.904264,-57.725182999999994,-7.623384,-86.213178,-22.999128,192.451273,262.79569,-26.710344,43.697564,13.371535999999999,20.620480999999998,-108.03397,-28.69424,78.393452,36.90793,45.795652000000004,90.509714,125.884101,-167.047135,-133.031755,95.864763,8.395223,45.552135,159.504275,111.38428600000002,-153.88235600000002,195.81382,175.387871,-310.10981200000003,75.202976
124,71.145,78.898258,204.693314,51.135907,142.090201,-40.485005,171.555851,56.477619999999995,113.176299,-26.056507,-101.136374,-152.00782,-66.695245,4.6382639999999995,113.763567,106.299347,46.173983,36.337614,110.03421200000001,-47.18499,-63.120597,-67.095866,-90.731125,150.558683,134.27122,16.369064,47.655916,64.61380600000001,-128.63841299999999,-116.844748,-71.62696700000001,-147.55512,62.992608,95.478038,170.770258,-65.231976,-44.807023,-65.141102,-61.364511,-100.054007,-83.236841,12.383567999999999,-29.964605,-17.437269,34.834171000000005,58.567536,-202.011349,-154.615262,32.50197,-47.835311,-51.05121,94.66158,58.680274,-148.871733,127.797418,105.909341,-257.365942,72.10521700000001
125,83.795,-14.650642999999999,95.64320500000001,-23.866761999999998,57.963738,-155.184681,63.873385,13.700835000000001,41.137553999999994,-128.56620800000002,-171.65559299999998,-229.46002000000001,-148.94577900000002,-105.524777,11.531114,20.511613,4.253911,13.586893,56.738471999999994,-137.375623,-148.81606200000002,-150.700733,-184.766692,34.486301,42.091643,-35.562644,-32.106308,-6.54358,-194.7408,-194.183177,-162.10522,-222.60451899999998,-244.048581,-49.489525,93.518688,-209.429282,-151.332314,-131.805853,-184.637187,-217.306806,-194.789424,-79.144178,-111.62643999999999,-77.034132,-53.168493999999995,-40.419207,-275.242885,-272.46758700000004,-50.541433000000005,-135.027825,-160.046828,2.699842,-28.772281,-313.034898,23.377470000000002,-9.927264,-536.835621,-115.79646000000001
126,91.68,48.681052,175.52069,71.04006899999999,123.26378799999999,-50.231046,154.928827,86.475267,112.55242,-38.914840999999996,-77.879068,-140.807679,-62.711771,-8.205862,143.178317,91.408392,66.903134,105.34895300000001,134.892472,-23.043,-38.939184000000004,-62.329329,-83.938061,154.970667,163.661665,26.398768,64.469078,66.281589,-119.931302,-101.3506,-66.79786,-137.600463,-7.867635000000001,45.960758,178.373696,-95.659227,-69.148453,-53.853167000000006,-102.488303,-151.032369,-125.816383,12.916869,-27.726703000000004,-17.392076,33.721886,63.653209999999994,-195.015302,-164.50370800000002,46.609491999999996,-46.873587,-48.539225,92.05488199999999,50.323425,-165.467705,124.63554199999999,98.13917,-357.767291,-164.175923
127,99.545,63.354725,206.20168600000002,48.064018,123.96626,-72.419151,146.832601,82.505432,103.598611,-63.682235999999996,-88.306,-142.233952,-58.957668999999996,-8.296856,104.67801999999999,94.248188,71.898894,87.250272,130.426521,-39.986922,-66.86213199999999,-60.709813,-91.076883,113.60116299999999,156.345889,7.424633999999999,39.250257,56.081676,-116.79433999999999,-115.08865,-87.678936,-129.837734,55.529548999999996,4.980357,144.28488000000002,-53.23713000000001,-50.23076,-52.564075,-112.25437600000001,-152.093801,-107.289928,2.27244,-24.901772,-9.895733,20.311595999999998,32.680596,-197.955701,-150.106662,41.346185,-57.41431899999999,-86.521603,73.08109,45.180884000000006,-149.961426,74.398423,64.205898,-344.681641,-75.823264
128,107.43,61.260677,200.308431,77.096952,135.80311,-72.134582,154.690978,108.82271100000001,126.121691,-47.592818,-61.565289,-118.56934,-47.627379,-17.660763,73.133902,110.418176,100.528583,107.71193500000001,144.17128,-0.024294,-35.314748,-47.371058000000005,-61.862942000000004,126.396377,171.616612,54.090054,87.779878,83.11049,-107.223091,-94.370238,-61.29087,-110.282053,31.346063,35.108468,173.994681,-30.161288,-11.956913,-31.991923,-96.579415,-135.731199,-95.793467,28.469878,-2.595383,15.779884,36.243955,55.790199,-175.82953,-131.750006,59.360411,-29.119601,-47.333202,97.980264,54.873354000000006,-137.113442,98.51209399999999,95.61059499999999,-364.078315,-209.22728700000002
129,115.315,45.334132000000004,168.494364,58.844787,98.950914,-83.737803,122.17895,72.032459,82.448037,-90.19194399999999,-86.984259,-142.06528400000002,-81.017698,-51.221945,10.871758999999999,85.94580400000001,61.145129000000004,61.797394,104.70173299999999,-43.154157,-71.254865,-79.100031,-96.21865799999999,105.028002,147.404789,27.637546,48.750687,41.176839,-126.708696,-131.229435,-98.105704,-137.532601,-17.861525,23.161625,134.850726,-91.00639,-45.284779,-66.289447,-138.255078,-186.528964,-116.028843,-13.290002,-22.487867,-13.854316,-1.113238,25.793756,-202.605221,-158.567358,25.307181,-60.172954000000004,-85.677814,60.129608,17.96283,-165.791294,53.88015600000001,67.619702,-424.913557,-290.392827
130,127.895,35.895792,176.092462,56.488034999999996,103.084603,-80.559618,119.788956,82.319456,87.659727,-81.279522,-74.600995,-127.030625,-63.956368999999995,-40.439040999999996,-3.830883,86.960264,75.756588,72.283158,117.400205,-44.842255,-50.254661999999996,-61.775353,-75.974837,114.012813,160.50791,26.449615,63.426145,63.344494999999995,-103.578287,-103.031308,-64.088077,-114.365452,-33.379948999999996,76.48236,142.934088,-49.677803999999995,-17.239437,-39.07369,-98.27416600000001,-161.684729,-103.900124,0.985395,-3.9780559999999996,-6.443186,22.351464,36.18189,-175.105205,-125.404976,26.636060999999998,-26.962941999999998,-45.250715,90.59533499999999,38.125646,-126.69865300000001,111.512694,93.078322,-286.792646,-497.87410700000004
131,135.78,41.818804,154.696768,67.963494,97.888223,-81.486331,74.78901,97.104203,89.02949,-100.428035,-76.853953,-132.615578,-69.249712,-55.993364,-61.30118,51.478075,89.85023100000001,79.300428,131.199298,-50.576086,-63.889906,-69.594207,-77.883151,46.759338,112.86588200000001,38.083323,42.353184000000006,48.540346,-110.63344199999999,-108.436609,-80.464095,-104.506603,-40.795823,-32.426871999999996,139.451683,-45.949861,-11.276157000000001,-45.147263,-109.64340800000001,-159.70671000000002,-120.93508,-4.207757,-17.696198000000003,-1.6402310000000002,22.814648000000002,34.60082,-165.45283600000002,-113.910854,38.514082,-32.814731,-49.214751,72.034098,42.484732,-113.12674399999999,70.641958,67.25484300000001,-268.82099300000004,-549.976584
132,143.65,-21.643088,91.63373100000001,14.604063,41.262938,-117.553976,19.267615,41.563804,37.631225,-141.093863,-119.540181,-166.06665800000002,-96.865243,-86.28170300000001,-138.49408200000002,0.44238,37.698572999999996,-35.363065999999996,90.01483499999999,-93.604697,-90.627128,-99.225185,-117.679603,25.252470000000002,49.614540000000005,-13.355459,8.906988,13.27615,-148.471892,-129.229457,-109.15566899999999,-149.98013600000002,-87.17152800000001,-61.962708,76.574023,-93.657399,-39.327073,-76.782314,-135.140793,-203.428084,-182.271162,-48.532416,-62.598243000000004,-39.514727,-20.115933,-3.746691,-203.538266,-147.779483,-10.73057,-74.158783,-86.214995,26.10013,-3.609328,-149.85423400000002,19.932712,16.441845,-321.57920099999996,-556.617978
133,151.55,-63.869647,46.233106,-42.391388,-10.252149000000001,-136.939441,-11.857560000000001,-12.836901,-23.543460999999997,-176.90807900000001,-165.3832,-203.169232,-141.41464,-131.798852,-14.130579000000001,-26.440182,-6.317183999999999,-92.752483,24.049565,-147.490207,-144.159707,-143.85438,-156.347341,-22.890917,8.484849,-58.30222,-41.484786,-47.494842999999996,-178.985435,-179.448631,-163.099692,-189.503308,-130.065377,-70.570777,41.545062,-135.806869,-97.46028000000001,-131.494357,-183.710527,-234.06498399999998,-237.58305499999997,-100.204944,-107.08279399999999,-78.086794,-62.84979499999999,-48.515384000000005,-262.733183,-189.762093,-67.190842,-127.29997,-132.50065800000002,-24.574551,-44.699366999999995,-186.932283,-47.921534,-36.104515,-354.823515,-509.800524
134,159.43,-150.857908,-53.694008999999994,-123.03297099999999,-94.807249,-217.796923,-92.57347800000001,-88.951275,-107.16588,-244.156028,-238.37021299999998,-281.579203,-223.297642,-218.11712000000003,-217.58452400000002,-116.65423899999999,-104.901344,-160.920796,-48.823863,-220.839905,-214.325418,-228.11603300000002,-241.428775,-105.677152,-77.644677,-148.26308400000002,-113.55130700000001,-123.92240600000001,-255.10152799999997,-251.01866099999998,-235.56097200000002,-272.995013,-214.808729,-175.77345,-53.367513,-220.677939,-168.971953,-208.671896,-260.694458,-300.901463,-315.961808,-174.799071,-187.82754599999998,-164.69708,-148.86566200000001,-123.19905200000001,-327.966292,-285.589152,-142.594743,-198.074259,-197.649256,-103.50568299999999,-133.501428,-311.954016,-153.693398,-125.009316,-592.7461400000001,-560.2171910000001
135,174.865,-40.119102000000005,64.40900400000001,-23.286456,7.337097,-78.108627,40.914035999999996,-18.767849,-38.308965,-118.322057,-125.82343,-164.862968,-113.92424799999999,-22.673902,-22.653463000000002,-34.615409,-26.3611,-60.370337,5.9335,-89.125999,-95.98105699999999,-123.607428,-121.559573,29.16435,27.282996,-69.126769,-48.99006,-37.574567,-175.4486,-138.09705300000002,-116.527542,-155.916155,-78.27138000000001,-382.183161,24.472039000000002,-100.643247,-81.203707,-114.22888300000001,-163.5073,-205.62813799999998,-205.827498,-61.420138,-86.304608,-82.410648,-67.32425400000001,-37.0598,-177.648517,-177.085992,-46.725707,-94.95728100000001,-69.626442,-12.206266000000001,-58.196247,-184.167756,-50.557099,-9.769909,-461.78580800000003,-368.68661099999997
136,185.55,-102.63189200000001,-28.219656,-98.069335,-62.871549,-170.078,-76.803024,-69.125507,-99.900847,-185.43712299999999,-198.365484,-238.59592400000002,-201.96044799999999,-152.60107,-151.493204,-114.178146,-97.194649,-105.494874,-51.138096999999995,-182.41048600000002,-190.690103,-211.046413,-196.310347,-77.333536,-69.825322,-120.3282,-114.72355800000001,-92.391993,-234.105288,-216.46298199999998,-207.406597,-224.91109900000004,-159.178154,-552.5009719999999,-48.819894,-206.32943999999998,-120.839321,-160.596081,-249.88350099999997,-283.12487000000004,-245.69678399999998,-142.580007,-153.201409,-123.990022,-137.74118700000002,-125.72054299999999,-239.60585899999998,-245.691771,-113.211669,-158.46993600000002,-152.60329199999998,-85.56043299999999,-120.91714499999999,-281.479627,-114.34286499999999,-96.667194,-633.166288,-312.351201
137,196.28,-97.83966099999999,-22.526363,-83.038203,-54.566731999999995,-149.85505700000002,-87.41468499999999,-52.340845,-78.773797,-158.817244,-175.860632,-209.253738,-188.988679,-181.880789,-157.557929,-114.07839299999999,-88.378164,-75.015069,-39.631054999999996,-178.229208,-176.818168,-193.473526,-174.473044,-96.157191,-70.81953,-104.030299,-111.198898,-81.603531,-225.36690099999998,-200.865473,-191.902031,-204.62887800000001,-138.43821100000002,-540.160921,-42.160407,-206.935471,-124.294172,-156.882248,-239.33515699999998,-283.80956000000003,-201.50413700000001,-135.349023,-143.363462,-121.2444,-145.451416,-122.303931,-250.569706,-236.83120099999996,-117.58495800000001,-150.08675,-164.686703,-81.548711,-130.24140400000002,-271.05197999999996,-128.87519,-106.02961299999998,-629.498439,-274.91542000000004
138,206.965,-95.897551,-21.289285999999997,-76.503337,-55.48591700000001,-130.00311399999998,-53.357826,-56.82365600000001,-81.57950699999999,-164.650811,-161.213902,-187.607382,-168.233939,-172.90278999999998,-125.222007,-93.028142,-109.43083700000001,-74.09903800000001,-38.602732,-159.347486,-146.360596,-172.964368,-138.67478400000002,-63.363243000000004,-53.845063,-94.624286,-85.588087,-74.62342,-205.789673,-179.231755,-163.42848899999998,-180.638657,-120.375533,-511.37143499999996,-23.039332,-200.70277,-129.810528,-148.425985,-207.381546,-251.976064,-159.95296299999998,-100.98437,-119.969642,-102.730106,-125.582847,-102.53073499999999,-227.863547,-203.346997,-93.539677,-116.40138,-128.993,-55.917753000000005,-113.89626499999999,-228.37702000000002,-98.75109499999999,-81.34593000000001,-556.5065440000001,-274.819448
139,217.635,-51.726546,18.560557,-38.109061,-21.060498000000003,-73.648783,-3.8870669999999996,-45.904299,-52.020468,-109.360004,-105.31291100000001,-129.43614499999998,-114.509961,-98.35912900000001,-57.025206000000004,-80.00828800000001,-104.678656,-52.606788,5.152949,-115.98801100000001,-91.815762,-114.341124,-80.59310699999999,-36.658207,-48.719704,-88.09251,-59.371967000000005,-45.859746,-157.002802,-131.22697,-108.97666000000001,-135.45349,-147.75082,-463.583285,-15.233937,-144.560856,-140.458236,-117.411658,-194.38921200000001,-207.15364499999998,-122.34281899999999,-75.662921,-92.63574,-81.562023,-95.830034,-79.03093299999999,-190.554597,-174.696287,-54.023752,-89.830871,-88.949,-27.873898999999998,-85.64622,-192.445435,-42.657243,-57.711707999999994,-511.83209800000003,-116.29091899999999
140,232.865,-24.053675,19.368085,-26.461296,-1.8946319999999999,-62.219494999999995,-13.188265,-13.672426000000002,-13.338435999999998,-97.702962,-92.268049,-111.70935300000001,-93.872498,-97.47191600000001,-71.335713,-21.307566,-68.574321,14.80511,18.401393,-101.504366,-85.242514,-90.958361,-80.962879,-36.743378,0.345343,-65.061654,-50.523083,-29.923758000000003,-118.940852,-94.51987199999999,-89.975009,-94.791636,64.057287,-436.282468,24.973045000000003,-63.201741000000005,-55.864045999999995,-74.34469200000001,-165.29972800000002,-115.658225,-55.784335999999996,-36.715165,-51.176818,-34.522825,7.298513000000001,25.916247,-102.61840500000001,-83.489673,-19.725676999999997,-47.950340999999995,-69.396549,9.498954,20.500127,-79.074395,-55.742155000000004,-36.301621000000004,-315.563626,-3.9208839999999996
141,243.55,26.559681,63.527779,35.948676,46.214169,8.099047,43.033679,42.885931,43.600634,-34.891801,-23.471504,-45.65805,-32.192592,-32.285833000000004,-8.314814,35.315539,-10.368751,62.767278000000005,75.395992,-21.165737,-14.557854999999998,-29.195446,-12.712195,13.944157999999998,51.021097999999995,-3.635786,14.907169,13.739529000000001,-74.283,-32.633542999999996,-27.170920000000002,-36.805294,41.592568,-372.628771,81.640348,-30.349152,-9.715438,-34.711144,-142.8963,-67.489603,-10.400686,11.145113,0.9748049999999999,16.306887,28.48282,66.264999,-46.775509,-41.148016999999996,37.202579,4.80194,-10.146227,61.191813,35.574692999999996,-39.757175,-3.0047919999999997,32.907018,-313.24296,77.275712
142,254.25,56.98540500000001,102.17234300000001,63.318633999999996,64.064134,52.858022999999996,56.194396999999995,74.211712,68.628211,4.346216,12.407276,-2.3747119999999997,-0.877424,-0.72572,23.076065,45.237001,17.128512,82.399275,76.654551,14.659051000000002,20.777468,-2.993639,30.417446999999996,65.607123,56.67206899999999,42.219605,42.726006,29.735068,-51.82173,-0.988827,2.604709,-6.915889999999999,-13.742320000000001,-258.59540899999996,91.88792600000001,-40.090237,-0.34991300000000003,-16.776216,-133.400312,-68.766178,-15.856086999999999,34.988637,22.606006,29.693484,25.229291,46.79599,-14.701792000000001,-36.541136,53.595082999999995,19.300875,19.537274,70.838223,31.117140000000003,-46.348888,23.407632,51.35903,-327.397983,75.732013
143,265.15,82.25273,145.929613,85.323305,98.51362900000001,75.506615,100.10122,82.92538499999999,89.865639,32.575693,37.580109,21.566283,26.656207000000002,18.877653,44.044146999999995,103.69791,49.959189,95.290592,102.566478,37.530528000000004,40.684678999999996,28.324904999999998,49.54712,97.852676,110.538829,50.869175,59.497473,50.265840999999995,-21.562414999999998,27.954732,30.010937,33.106914,135.359823,-132.914448,117.32383700000001,26.598748999999998,33.264021,18.850471,-131.66638799999998,-8.089089,27.536890000000003,65.365324,53.81211999999999,63.149801000000004,71.43431700000001,74.722995,6.789459,21.583851,81.869024,52.528656000000005,66.301176,105.676119,80.787532,36.06062,80.438949,74.189577,-148.67337,170.53485600000002
144,275.82,16.739392000000002,39.4382,-15.077945000000001,22.564313000000002,10.511425,-16.855458,11.992,-4.273303,-44.923331,-27.158015000000002,-30.260547,-28.944729,-41.222709,-61.987370999999996,16.083572,-23.37024,16.894909,26.702146000000003,-35.243633,-18.039306,-26.993777,-3.8040339999999997,10.722989,16.662948999999998,-18.840446,-19.800225,-14.874410000000001,-66.745475,-22.931788,-20.6946,-0.340582,103.332522,-152.550262,56.095604,-29.983299,-28.500140000000002,-46.250567,-181.910478,-33.711281,-13.018974,8.300016000000001,-4.620621,-0.570188,6.881765,1.511451,-57.76306700000001,-15.084420999999999,31.309616,-6.6424970000000005,-0.30437,41.468265,17.495358,2.872424,47.358897999999996,16.423592000000003,-150.113743,153.803703
145,291.27,23.454596,29.603995,17.482556,18.108314,28.945128999999998,-0.7821600000000001,9.342067,-11.055833999999999,-49.802828999999996,-25.944146,-26.353926,-24.231476999999998,-38.880021,-63.809118999999995,-0.288535,-27.705234,15.763663000000001,10.770035,-43.229252,-11.817129,-25.215096,-18.434583,11.151807000000002,6.0920510000000005,-10.513233999999999,-5.522313,-35.871114,-54.932398,-18.197398,-18.039892000000002,-26.688228999999996,-17.385853,-80.27550600000001,32.327791999999995,-33.801743,-45.647927,-41.517356,-177.125927,-21.511828,7.296146,-1.287801,-15.556879,-3.7925739999999997,3.650344,0.343513,-34.585277000000005,-24.281791000000002,2.7546169999999996,-3.2945559999999996,20.722769,39.420315,9.177771,-25.639957,41.546558000000005,9.96487,-107.36276799999999,262.012119
146,301.935,13.470451,63.24933299999999,9.442981,10.685436,29.998032000000002,-26.308657,23.805031,0.746922,-12.339706,-9.025955999999999,-9.27351,-12.729723,-20.396229,-67.96871800000001,17.433145,-25.237013,-0.06858099999999999,25.874986,-7.45345,-2.696727,-14.602042,-1.567852,-19.348228,-13.010850999999999,-26.797453000000004,0.424588,-25.923764000000002,-25.03421,4.158626,-8.463421,-13.464272,-107.510322,-45.150479,30.354309000000004,-11.73274,-31.043944,-13.095158,-115.388424,-2.087434,46.355101,6.668557000000001,-5.85926,1.40552,-12.5274,-20.958270000000002,-8.014738000000001,-24.476437,-10.901311,4.919905,26.559588,36.596156,-7.531844,-46.989184,7.228874,-9.25445,-119.59718400000001,235.74584700000003
147,312.62,25.700756,27.211655,19.337098,31.617966,35.86663,-11.543524,35.644919,19.486453,-11.184949000000001,8.629609,15.465065,14.098579,54.805048,26.182485999999997,2.38766,4.146723000000001,34.649651,22.396626,5.54726,20.781319,10.900030000000001,27.500304999999997,16.868829,4.687849,13.600837,27.698213,3.062894,15.210198000000002,31.968614000000002,16.653392999999998,22.546386,133.857406,18.351570000000002,57.579455,35.202943,-25.090503,25.269126999999997,-41.857073,10.106562,54.805677,36.206992,22.133274,26.073135,20.891126999999997,7.698108,23.248322,48.751431,7.037978999999999,32.904009,61.905011,55.809398,25.746851,63.684875,25.66907,19.566432,153.92863899999998,263.005125
148,323.32,51.53962,29.391740999999996,23.139434,44.582095,53.654720999999995,30.3648,39.73446,24.319504000000002,1.6076629999999998,38.941553000000006,46.330151,42.791072,69.10516700000001,-1.49665,50.280344,17.900074,28.114756,28.475085999999997,5.774424,52.439417000000006,43.290176,52.671342,30.408590000000004,46.741718,57.653163,41.362390000000005,27.344647,30.604592999999998,70.124706,50.450047,64.88971,-47.938666,9.85249,64.275596,45.161229999999996,2.5342279999999997,68.776392,34.869659999999996,43.33294,108.67091299999998,79.392674,62.460678,60.06255600000001,52.982690000000005,32.443858,68.772992,59.913982,32.611246,77.31772,94.07382700000001,89.375116,57.93738100000001,29.661417999999998,67.08905,49.239866,99.537908,250.589427
149,334.005,31.180807,-1.136781,20.062827,31.107765,46.190664,16.500842000000002,47.258023,20.995829999999998,5.333652,27.450043,44.034535,43.980357,91.408064,-30.485986999999998,46.546145,37.843721,19.596208999999998,8.665291,14.532893,44.517855,45.106842,42.801815000000005,2.057512,8.505051,45.486063,42.025888,9.828716,31.109251,64.61636700000001,43.273182,56.803135,147.817003,72.468661,43.017837,64.088301,-20.397947,75.569197,70.395838,59.039062,97.433112,59.23114,40.611518,38.877417,12.445069,-4.041188,63.394264,87.434161,16.389976,60.72312900000001,72.680347,54.124986,15.997126000000002,96.06330799999999,17.249751,22.388317999999998,320.406885,207.630465
150,346.635,108.808462,52.481175,132.177707,89.174821,136.600419,103.091339,128.97136899999998,97.70975200000001,116.45328700000002,122.90376699999999,126.669164,106.236942,176.133703,65.070684,89.282107,96.543183,103.21959100000001,53.56616999999999,116.421986,138.80390400000002,105.32507700000001,115.515753,116.954297,71.552661,114.40685,156.256357,95.42116999999999,100.898738,135.063759,116.93435900000001,107.53872,148.073896,159.05279299999998,124.302656,154.256995,98.24064399999999,114.657847,157.605182,115.20453,101.977301,123.25188600000001,81.106678,98.88350600000001,79.164632,89.720303,129.950451,132.53018899999998,57.051302,109.96411499999999,154.980568,90.730642,72.287114,150.43588300000002,99.041411,117.677355,394.875197,156.46151799999998
151,354.505,80.430605,24.929413,60.341296,47.339276,71.79895,51.136715,69.45652,47.947544,62.926660999999996,72.658519,83.78446600000001,60.392934999999994,125.115682,59.320758,69.532139,45.380006,45.012707,-9.329550999999999,48.435924,80.660208,57.815792,75.61212900000001,45.504853000000004,35.045712,54.354872,85.05304100000001,28.207426,51.375464,90.93493000000001,61.327025,77.598908,143.565281,187.594021,58.026872,109.126121,28.074852000000003,68.818247,133.360065,83.470851,62.128257,89.44189300000001,52.740361,53.573448,35.734062,42.558951,88.838497,98.483028,7.742329,66.329162,102.112674,41.405097,28.263467,116.71410900000001,47.04013,51.238649,382.46654900000004,215.76256
152,362.37,87.426224,49.458007,78.496579,67.408497,109.924196,101.0284,80.488976,66.613736,93.15861600000001,108.514774,120.330754,93.75125600000001,168.13863700000002,65.551813,107.887672,61.61973100000001,65.675827,25.495754,80.34098,117.132979,89.606779,117.893188,91.704697,60.491713,90.691556,96.77063100000001,54.462056999999994,104.98695900000001,123.137725,92.601966,125.596627,85.442883,219.241986,75.87412900000001,124.083421,81.653337,99.59569,133.535524,139.84708,65.39749,110.001554,82.309821,92.374507,64.288179,57.884485999999995,117.116176,112.128794,81.379253,98.283355,119.578818,74.03648100000001,58.711275,118.822295,91.410993,84.179345,151.75909,277.661167
153,370.235,-53.10520699999999,-97.961476,-77.013372,-62.489143999999996,-33.499697,-71.749628,-46.256006,-61.313466000000005,-55.146581000000005,-32.822833,-12.49888,-43.436285999999996,17.536336,-109.04720400000001,-35.714399,-58.195198,-68.78581199999999,-102.54151800000001,-69.798608,-35.871101,-46.442665999999996,-26.154923999999998,-97.947762,-90.447863,-33.3012,-50.115942,-73.736498,-17.868655,-12.41353,-51.911676,-3.573407,-134.109781,97.381134,-58.846065,-6.155501,-60.03640600000001,-33.038596000000005,-8.145282,12.021494,-74.978914,-32.782337,-50.494227,-24.798952,-74.25150500000001,-97.247596,-21.71895,-28.594352,-60.850849,-37.058275,-48.502140999999995,-66.536007,-75.063548,-47.766881,-66.449732,-77.48399,-125.901699,199.575077
154,378.105,-34.769213,-64.940741,-12.980391000000001,-26.033020999999998,5.981294999999999,-20.415124,-26.584781,-42.412572999999995,-8.274475,5.069689,20.875097,-16.474811,75.363667,-71.388757,-13.852742000000001,-12.445988,-57.392086,-86.60422700000001,-27.974712,0.41959399999999997,-16.423417,2.706976,-82.70994,-68.477151,-42.947934000000004,-5.620993,-45.059123,11.962758000000001,10.109608999999999,-17.664653,12.80146,-62.860477,121.763503,-36.121851,33.426574,-25.744828,-5.303649,9.039232,28.485637,-50.596334000000006,-2.691336,-18.360742000000002,-2.726799,-43.237363,-49.197645,31.745769,10.907905,-53.234331999999995,-4.534929,11.192445,-36.019757,-48.417728000000004,10.113178,-64.635002,-19.690641,-141.961347,179.50456200000002
155,390.77,-48.046984,-119.994969,-52.635043,-66.72918299999999,-11.551018,-57.818998,-40.024387,-71.24431700000001,-30.29187,-6.953613000000001,15.03534,-28.476816999999997,37.500048,-90.815022,-29.316409000000004,-30.893682000000002,-63.358011,-119.21763,-53.519937,-22.903302,-27.979659,-4.770599,-112.82323500000001,-79.702308,-35.108278999999996,-36.012372,-74.73232800000001,-6.581989999999999,-10.825841,-26.176299,5.1038,-70.020728,117.657344,-68.409708,0.9372469999999999,-57.557337,-22.102641000000002,-7.899126,10.627411,-22.545355999999998,-23.451772000000002,-19.549349,-24.950067999999998,-90.244671,-83.316242,16.608788,4.086216,-94.100567,-15.789207000000001,-35.988577,-60.201004000000005,-96.515467,2.226744,-107.37910900000001,-65.560949,-186.262916,187.450759
156,398.655,-3.190605,-96.257517,-0.345978,-32.952582,39.954065,-4.571733999999999,2.150198,-43.77581,25.117708,37.792051,59.132982,13.354163,70.43243000000001,-37.724108,-5.166738,11.648031,-20.57301,-83.35938,-3.9052480000000003,28.876483,14.159626999999999,31.474840000000004,-37.047629,-34.156110999999996,-33.411815999999995,4.422305000000001,-32.796754,26.483202000000002,31.562613,18.386129,35.261081,22.535971,142.47761699999998,-36.937914,33.167076,-21.090201999999998,13.94999,24.060354999999998,30.755954,17.182399,5.198139,-7.116142999999999,6.31588,-52.263915000000004,-38.289758,32.547877,52.044895000000004,-39.090461,7.5195419999999995,-9.438933,-40.909527000000004,-64.818884,69.244815,-91.694539,-19.13499,-152.448819,236.539014
